# Pbox  30000.00  34 4095  0.0     0    1.0000 1.56036     6
# VJ4.2  pw (us)  pwr  pwrf  dres  dmf  dcyc   B1max (kHz)  Stype
# ---------------------------------------------------------------
# Pxsim 0.0300000 1433.9682 0.000 218023.2 0.0000000 0.0000000 0.00
# data: pw (s) B1max (Hz) status sw (Hz) T1 (s)   T2 (s) RDC (Hz)
# ---------------------------------------------------------------
# Pbox.inp data :
# ~~~~~~~~~~~~~~~~~~~~~~~~~~~Waves~~~~~~~~~~~~~~~~~~~~~~~~~~~~~~~~~~
#   shape   bw(/pw)   ofs  st  ph  fla  trev  d1  d2   d0   wrp  php
# ~~~~~~~~~~~~~~~~~~~~~~~~~~~~~~~~~~~~~~~~~~~~~~~~~~~~~~~~~~~~~~~~~~
# { wurst2i 36337.2/0.0300000 }
#
# type      = r          mod       = n          dres      = n         
# steps     = n          stepsize  = 10.00      attn      = i         
# refofs    = n          wrap      = n          sfrq      = n         
# sucyc     = d          reps      = 2          header    = y         
# bscor     = n          pad1      = n          pad2      = n         
# bsim      = n          T1        = n          T2        = n         
# rdc       = n          dcyc      = n          sw        = n         
#
# RF Calibration Data :  ref_pwr   = 60         ref_pw90  = 8.03
# ~~~~~~~~~~~~~~~~~~~~~
###
# ------------------- Shape data ------------------
# pwtot      = 0.0300000 (total pw, s)
# power      = 34 (power level, dB)
# pwrf       = 4095 (fine power)
# B1max      = 1.5604 (B1max, kHz)
# B1rms      = 0.8780 (B1[RMS], kHz)
# nptot      = 3000 (total number of steps)
# stepsize   = 10.00 (length of a single step, us)
# maxamp     = 941.1 (max amplitude)
# ------------------------------------------------- 
#      phase      amplitude   length     gate 
# ------------------------------------------------- 
        0.00      1023.00      0.0        0
       0.000        0.000      1.0        0
     101.766        0.000      1.0        0
     167.195        0.000      1.0        0
     232.624        0.000      1.0        0
     298.053        0.000      1.0        0
       3.481        0.000      1.0        0
      68.910        0.000      1.0        0
     134.339        0.000      1.0        0
     199.768        0.000      1.0        0
     265.197        0.000      1.0        0
     330.625        0.000      1.0        0
      36.054        0.000      1.0        0
     101.483        0.000      1.0        0
     166.912        0.000      1.0        0
     232.340        0.000      1.0        0
     297.769        0.000      1.0        0
       3.198        0.000      1.0        0
      68.627        0.000      1.0        0
     134.055        0.000      1.0        0
     199.484        0.000      1.0        0
     264.913        0.000      1.0        0
     330.342        0.000      1.0        0
      35.771        0.000      1.0        1
     101.199        0.000      1.0        1
     166.628        0.000      1.0        1
     232.057        0.000      1.0        1
     297.486        0.000      1.0        1
       2.914        0.000      1.0        1
      68.343        0.000      1.0        1
     133.772        0.000      1.0        1
     199.201        0.000      1.0        1
     264.629        0.000      1.0        1
     330.058        0.057      1.0        1
      35.487        0.124      1.0        1
     100.916        0.193      1.0        1
     166.345        0.264      1.0        1
     231.773        0.338      1.0        1
     297.202        0.413      1.0        1
       2.631        0.490      1.0        1
      68.060        0.570      1.0        1
     133.488        0.651      1.0        1
     198.917        0.735      1.0        1
     264.346        0.820      1.0        1
     329.775        0.908      1.0        1
      35.203        0.998      1.0        1
     100.632        1.090      1.0        1
     166.061        1.183      1.0        1
     231.490        1.279      1.0        1
     296.918        1.377      1.0        1
       2.347        1.477      1.0        1
      67.776        1.579      1.0        1
     133.205        1.683      1.0        1
     198.634        1.790      1.0        1
     264.062        1.898      1.0        1
     329.491        2.008      1.0        1
      34.920        2.120      1.0        1
     100.349        2.235      1.0        1
     165.777        2.351      1.0        1
     231.206        2.470      1.0        1
     296.635        2.590      1.0        1
       2.064        2.713      1.0        1
      67.492        2.837      1.0        1
     132.921        2.964      1.0        1
     198.350        3.093      1.0        1
     263.779        3.223      1.0        1
     329.207        3.356      1.0        1
      34.636        3.491      1.0        1
     100.065        3.628      1.0        1
     165.493        3.767      1.0        1
     230.922        3.908      1.0        1
     296.351        4.051      1.0        1
       1.780        4.196      1.0        1
      67.208        4.343      1.0        1
     132.637        4.492      1.0        1
     198.066        4.644      1.0        1
     263.494        4.797      1.0        1
     328.923        4.952      1.0        1
      34.352        5.109      1.0        1
      99.781        5.269      1.0        1
     165.209        5.430      1.0        1
     230.638        5.594      1.0        1
     296.067        5.759      1.0        1
       1.495        5.927      1.0        1
      66.924        6.096      1.0        1
     132.353        6.268      1.0        1
     197.781        6.441      1.0        1
     263.210        6.617      1.0        1
     328.639        6.795      1.0        1
      34.067        6.974      1.0        1
      99.496        7.156      1.0        1
     164.924        7.340      1.0        1
     230.353        7.526      1.0        1
     295.782        7.713      1.0        1
       1.210        7.903      1.0        1
      66.639        8.095      1.0        1
     132.067        8.289      1.0        1
     197.496        8.485      1.0        1
     262.924        8.683      1.0        1
     328.353        8.883      1.0        1
      33.781        9.085      1.0        1
      99.210        9.289      1.0        1
     164.638        9.495      1.0        1
     230.067        9.703      1.0        1
     295.495        9.913      1.0        1
       0.924       10.125      1.0        1
      66.352       10.339      1.0        1
     131.781       10.555      1.0        1
     197.209       10.774      1.0        1
     262.637       10.994      1.0        1
     328.066       11.216      1.0        1
      33.494       11.440      1.0        1
      98.922       11.666      1.0        1
     164.351       11.894      1.0        1
     229.779       12.125      1.0        1
     295.207       12.357      1.0        1
       0.635       12.591      1.0        1
      66.064       12.827      1.0        1
     131.492       13.066      1.0        1
     196.920       13.306      1.0        1
     262.348       13.548      1.0        1
     327.776       13.792      1.0        1
      33.204       14.039      1.0        1
      98.632       14.287      1.0        1
     164.060       14.537      1.0        1
     229.488       14.789      1.0        1
     294.916       15.043      1.0        1
       0.344       15.300      1.0        1
      65.772       15.558      1.0        1
     131.200       15.818      1.0        1
     196.627       16.080      1.0        1
     262.055       16.345      1.0        1
     327.483       16.611      1.0        1
      32.911       16.879      1.0        1
      98.338       17.149      1.0        1
     163.766       17.421      1.0        1
     229.193       17.695      1.0        1
     294.621       17.971      1.0        1
       0.048       18.249      1.0        1
      65.476       18.530      1.0        1
     130.903       18.812      1.0        1
     196.330       19.096      1.0        1
     261.758       19.382      1.0        1
     327.185       19.670      1.0        1
      32.612       19.960      1.0        1
      98.039       20.252      1.0        1
     163.466       20.545      1.0        1
     228.893       20.841      1.0        1
     294.320       21.139      1.0        1
     359.747       21.439      1.0        1
      65.174       21.741      1.0        1
     130.600       22.044      1.0        1
     196.027       22.350      1.0        1
     261.453       22.658      1.0        1
     326.880       22.968      1.0        1
      32.306       23.279      1.0        1
      97.733       23.593      1.0        1
     163.159       23.908      1.0        1
     228.585       24.226      1.0        1
     294.011       24.545      1.0        1
     359.437       24.866      1.0        1
      64.863       25.190      1.0        1
     130.289       25.515      1.0        1
     195.715       25.842      1.0        1
     261.140       26.171      1.0        1
     326.566       26.503      1.0        1
      31.991       26.836      1.0        1
      97.417       27.171      1.0        1
     162.842       27.508      1.0        1
     228.267       27.846      1.0        1
     293.692       28.187      1.0        1
     359.117       28.530      1.0        1
      64.542       28.875      1.0        1
     129.966       29.221      1.0        1
     195.391       29.570      1.0        1
     260.815       29.920      1.0        1
     326.240       30.273      1.0        1
      31.664       30.627      1.0        1
      97.088       30.983      1.0        1
     162.512       31.342      1.0        1
     227.936       31.702      1.0        1
     293.359       32.064      1.0        1
     358.783       32.428      1.0        1
      64.206       32.794      1.0        1
     129.629       33.162      1.0        1
     195.052       33.531      1.0        1
     260.475       33.903      1.0        1
     325.898       34.276      1.0        1
      31.320       34.652      1.0        1
      96.743       35.029      1.0        1
     162.165       35.409      1.0        1
     227.587       35.790      1.0        1
     293.009       36.173      1.0        1
     358.431       36.558      1.0        1
      63.852       36.945      1.0        1
     129.274       37.333      1.0        1
     194.695       37.724      1.0        1
     260.116       38.117      1.0        1
     325.536       38.511      1.0        1
      30.957       38.908      1.0        1
      96.377       39.306      1.0        1
     161.797       39.706      1.0        1
     227.217       40.108      1.0        1
     292.637       40.512      1.0        1
     358.056       40.918      1.0        1
      63.475       41.325      1.0        1
     128.894       41.735      1.0        1
     194.313       42.146      1.0        1
     259.732       42.560      1.0        1
     325.150       42.975      1.0        1
      30.568       43.392      1.0        1
      95.985       43.811      1.0        1
     161.403       44.232      1.0        1
     226.820       44.654      1.0        1
     292.237       45.079      1.0        1
     357.654       45.505      1.0        1
      63.070       45.934      1.0        1
     128.486       46.364      1.0        1
     193.902       46.796      1.0        1
     259.317       47.229      1.0        1
     324.732       47.665      1.0        1
      30.147       48.103      1.0        1
      95.562       48.542      1.0        1
     160.976       48.983      1.0        1
     226.390       49.426      1.0        1
     291.803       49.871      1.0        1
     357.217       50.318      1.0        1
      62.630       50.767      1.0        1
     128.042       51.217      1.0        1
     193.454       51.669      1.0        1
     258.866       52.123      1.0        1
     324.277       52.579      1.0        1
      29.688       53.037      1.0        1
      95.099       53.497      1.0        1
     160.509       53.958      1.0        1
     225.919       54.421      1.0        1
     291.329       54.887      1.0        1
     356.738       55.353      1.0        1
      62.146       55.822      1.0        1
     127.555       56.293      1.0        1
     192.962       56.765      1.0        1
     258.370       57.239      1.0        1
     323.777       57.715      1.0        1
      29.183       58.193      1.0        1
      94.589       58.672      1.0        1
     159.994       59.154      1.0        1
     225.400       59.637      1.0        1
     290.804       60.122      1.0        1
     356.208       60.609      1.0        1
      61.612       61.097      1.0        1
     127.015       61.588      1.0        1
     192.417       62.080      1.0        1
     257.819       62.574      1.0        1
     323.221       63.070      1.0        1
      28.622       63.567      1.0        1
      94.022       64.066      1.0        1
     159.422       64.567      1.0        1
     224.821       65.070      1.0        1
     290.220       65.575      1.0        1
     355.618       66.081      1.0        1
      61.016       66.589      1.0        1
     126.413       67.099      1.0        1
     191.809       67.611      1.0        1
     257.205       68.125      1.0        1
     322.600       68.640      1.0        1
      27.994       69.157      1.0        1
      93.388       69.676      1.0        1
     158.781       70.196      1.0        1
     224.174       70.718      1.0        1
     289.565       71.242      1.0        1
     354.956       71.768      1.0        1
      60.347       72.296      1.0        1
     125.737       72.825      1.0        1
     191.126       73.356      1.0        1
     256.514       73.889      1.0        1
     321.901       74.423      1.0        1
      27.288       74.959      1.0        1
      92.674       75.497      1.0        1
     158.059       76.037      1.0        1
     223.444       76.578      1.0        1
     288.828       77.121      1.0        1
     354.210       77.666      1.0        1
      59.593       78.213      1.0        1
     124.974       78.761      1.0        1
     190.354       79.311      1.0        1
     255.734       79.863      1.0        1
     321.112       80.416      1.0        1
      26.490       80.971      1.0        1
      91.867       81.528      1.0        1
     157.243       82.086      1.0        1
     222.618       82.647      1.0        1
     287.993       83.209      1.0        1
     353.366       83.772      1.0        1
      58.738       84.338      1.0        1
     124.110       84.905      1.0        1
     189.480       85.473      1.0        1
     254.850       86.044      1.0        1
     320.218       86.616      1.0        1
      25.585       87.189      1.0        1
      90.952       87.765      1.0        1
     156.317       88.342      1.0        1
     221.682       88.921      1.0        1
     287.045       89.501      1.0        1
     352.407       90.083      1.0        1
      57.768       90.667      1.0        1
     123.128       91.252      1.0        1
     188.487       91.840      1.0        1
     253.845       92.428      1.0        1
     319.201       93.019      1.0        1
      24.557       93.611      1.0        1
      89.911       94.205      1.0        1
     155.264       94.800      1.0        1
     220.616       95.397      1.0        1
     285.967       95.996      1.0        1
     351.316       96.596      1.0        1
      56.664       97.198      1.0        1
     122.011       97.801      1.0        1
     187.357       98.407      1.0        1
     252.701       99.013      1.0        1
     318.044       99.622      1.0        1
      23.386      100.232      1.0        1
      88.726      100.844      1.0        1
     154.065      101.457      1.0        1
     219.403      102.072      1.0        1
     284.739      102.688      1.0        1
     350.074      103.306      1.0        1
      55.407      103.926      1.0        1
     120.739      104.548      1.0        1
     186.069      105.171      1.0        1
     251.398      105.795      1.0        1
     316.726      106.421      1.0        1
      22.052      107.049      1.0        1
      87.376      107.678      1.0        1
     152.699      108.309      1.0        1
     218.020      108.942      1.0        1
     283.340      109.576      1.0        1
     348.658      110.212      1.0        1
      53.974      110.849      1.0        1
     119.289      111.488      1.0        1
     184.602      112.128      1.0        1
     249.914      112.770      1.0        1
     315.223      113.414      1.0        1
      20.532      114.059      1.0        1
      85.838      114.705      1.0        1
     151.142      115.354      1.0        1
     216.445      116.003      1.0        1
     281.746      116.655      1.0        1
     347.045      117.308      1.0        1
      52.343      117.962      1.0        1
     117.638      118.618      1.0        1
     182.932      119.275      1.0        1
     248.223      119.934      1.0        1
     313.513      120.595      1.0        1
      18.801      121.257      1.0        1
      84.087      121.921      1.0        1
     149.371      122.586      1.0        1
     214.652      123.253      1.0        1
     279.932      123.921      1.0        1
     345.210      124.591      1.0        1
      50.486      125.262      1.0        1
     115.759      125.934      1.0        1
     181.031      126.609      1.0        1
     246.300      127.285      1.0        1
     311.567      127.962      1.0        1
      16.832      128.641      1.0        1
      82.095      129.321      1.0        1
     147.356      130.003      1.0        1
     212.614      130.686      1.0        1
     277.870      131.370      1.0        1
     343.124      132.057      1.0        1
      48.375      132.744      1.0        1
     113.624      133.434      1.0        1
     178.871      134.124      1.0        1
     244.115      134.816      1.0        1
     309.357      135.510      1.0        1
      14.597      136.205      1.0        1
      79.833      136.902      1.0        1
     145.068      137.599      1.0        1
     210.300      138.299      1.0        1
     275.529      139.000      1.0        1
     340.756      139.702      1.0        1
      45.980      140.406      1.0        1
     111.202      141.111      1.0        1
     176.421      141.818      1.0        1
     241.637      142.526      1.0        1
     306.850      143.235      1.0        1
      12.061      143.946      1.0        1
      77.269      144.659      1.0        1
     142.474      145.373      1.0        1
     207.677      146.088      1.0        1
     272.876      146.805      1.0        1
     338.073      147.523      1.0        1
      43.267      148.242      1.0        1
     108.458      148.963      1.0        1
     173.646      149.685      1.0        1
     238.831      150.409      1.0        1
     304.013      151.134      1.0        1
       9.192      151.861      1.0        1
      74.367      152.589      1.0        1
     139.540      153.318      1.0        1
     204.710      154.049      1.0        1
     269.876      154.781      1.0        1
     335.039      155.514      1.0        1
      40.199      156.249      1.0        1
     105.356      156.985      1.0        1
     170.510      157.723      1.0        1
     235.660      158.462      1.0        1
     300.807      159.202      1.0        1
       5.950      159.944      1.0        1
      71.090      160.687      1.0        1
     136.227      161.431      1.0        1
     201.360      162.177      1.0        1
     266.490      162.924      1.0        1
     331.616      163.673      1.0        1
      36.739      164.423      1.0        1
     101.858      165.174      1.0        1
     166.973      165.926      1.0        1
     232.085      166.680      1.0        1
     297.193      167.435      1.0        1
       2.297      168.192      1.0        1
      67.397      168.949      1.0        1
     132.494      169.708      1.0        1
     197.587      170.469      1.0        1
     262.676      171.231      1.0        1
     327.761      171.994      1.0        1
      32.842      172.758      1.0        1
      97.920      173.524      1.0        1
     162.993      174.290      1.0        1
     228.062      175.059      1.0        1
     293.127      175.828      1.0        1
     358.188      176.599      1.0        1
      63.245      177.371      1.0        1
     128.298      178.145      1.0        1
     193.346      178.919      1.0        1
     258.390      179.695      1.0        1
     323.430      180.472      1.0        1
      28.466      181.251      1.0        1
      93.497      182.031      1.0        1
     158.524      182.812      1.0        1
     223.546      183.594      1.0        1
     288.564      184.377      1.0        1
     353.578      185.162      1.0        1
      58.586      185.948      1.0        1
     123.591      186.736      1.0        1
     188.590      187.524      1.0        1
     253.585      188.314      1.0        1
     318.576      189.105      1.0        1
      23.561      189.897      1.0        1
      88.542      190.690      1.0        1
     153.518      191.485      1.0        1
     218.489      192.281      1.0        1
     283.455      193.078      1.0        1
     348.416      193.876      1.0        1
      53.372      194.676      1.0        1
     118.323      195.477      1.0        1
     183.269      196.279      1.0        1
     248.210      197.082      1.0        1
     313.146      197.886      1.0        1
      18.077      198.692      1.0        1
      83.002      199.498      1.0        1
     147.922      200.306      1.0        1
     212.837      201.115      1.0        1
     277.746      201.926      1.0        1
     342.650      202.737      1.0        1
      47.549      203.550      1.0        1
     112.442      204.363      1.0        1
     177.329      205.178      1.0        1
     242.211      205.994      1.0        1
     307.087      206.812      1.0        1
      11.958      207.630      1.0        1
      76.823      208.450      1.0        1
     141.682      209.270      1.0        1
     206.535      210.092      1.0        1
     271.383      210.915      1.0        1
     336.224      211.739      1.0        1
      41.060      212.564      1.0        1
     105.889      213.391      1.0        1
     170.713      214.218      1.0        1
     235.531      215.047      1.0        1
     300.342      215.877      1.0        1
       5.147      216.708      1.0        1
      69.946      217.540      1.0        1
     134.739      218.373      1.0        1
     199.525      219.207      1.0        1
     264.305      220.042      1.0        1
     329.078      220.878      1.0        1
      33.846      221.716      1.0        1
      98.606      222.554      1.0        1
     163.360      223.394      1.0        1
     228.108      224.235      1.0        1
     292.848      225.077      1.0        1
     357.582      225.919      1.0        1
      62.309      226.763      1.0        1
     127.030      227.608      1.0        1
     191.743      228.454      1.0        1
     256.450      229.301      1.0        1
     321.150      230.150      1.0        1
      25.842      230.999      1.0        1
      90.528      231.849      1.0        1
     155.206      232.700      1.0        1
     219.878      233.553      1.0        1
     284.542      234.406      1.0        1
     349.199      235.261      1.0        1
      53.848      236.116      1.0        1
     118.490      236.972      1.0        1
     183.125      237.830      1.0        1
     247.752      238.688      1.0        1
     312.371      239.548      1.0        1
      16.983      240.408      1.0        1
      81.588      241.270      1.0        1
     146.184      242.133      1.0        1
     210.773      242.996      1.0        1
     275.354      243.861      1.0        1
     339.927      244.726      1.0        1
      44.492      245.593      1.0        1
     109.050      246.460      1.0        1
     173.599      247.329      1.0        1
     238.140      248.198      1.0        1
     302.673      249.068      1.0        1
       7.197      249.940      1.0        1
      71.714      250.812      1.0        1
     136.222      251.685      1.0        1
     200.721      252.560      1.0        1
     265.213      253.435      1.0        1
     329.695      254.311      1.0        1
      34.170      255.188      1.0        1
      98.635      256.066      1.0        1
     163.092      256.945      1.0        1
     227.540      257.825      1.0        1
     291.979      258.706      1.0        1
     356.410      259.588      1.0        1
      60.831      260.471      1.0        1
     125.244      261.354      1.0        1
     189.647      262.239      1.0        1
     254.042      263.124      1.0        1
     318.427      264.010      1.0        1
      22.803      264.898      1.0        1
      87.170      265.786      1.0        1
     151.527      266.675      1.0        1
     215.875      267.565      1.0        1
     280.214      268.456      1.0        1
     344.543      269.347      1.0        1
      48.862      270.240      1.0        1
     113.172      271.133      1.0        1
     177.471      272.028      1.0        1
     241.762      272.923      1.0        1
     306.042      273.819      1.0        1
      10.312      274.716      1.0        1
      74.573      275.614      1.0        1
     138.823      276.512      1.0        1
     203.063      277.412      1.0        1
     267.293      278.312      1.0        1
     331.513      279.213      1.0        1
      35.722      280.115      1.0        1
      99.921      281.018      1.0        1
     164.110      281.922      1.0        1
     228.288      282.826      1.0        1
     292.456      283.731      1.0        1
     356.613      284.637      1.0        1
      60.759      285.544      1.0        1
     124.894      286.452      1.0        1
     189.018      287.361      1.0        1
     253.132      288.270      1.0        1
     317.235      289.180      1.0        1
      21.326      290.091      1.0        1
      85.407      291.003      1.0        1
     149.476      291.915      1.0        1
     213.534      292.828      1.0        1
     277.580      293.742      1.0        1
     341.615      294.657      1.0        1
      45.639      295.573      1.0        1
     109.651      296.489      1.0        1
     173.652      297.406      1.0        1
     237.640      298.324      1.0        1
     301.617      299.243      1.0        1
       5.583      300.162      1.0        1
      69.536      301.082      1.0        1
     133.477      302.003      1.0        1
     197.406      302.924      1.0        1
     261.323      303.847      1.0        1
     325.228      304.770      1.0        1
      29.121      305.694      1.0        1
      93.001      306.618      1.0        1
     156.869      307.543      1.0        1
     220.724      308.469      1.0        1
     284.567      309.396      1.0        1
     348.397      310.323      1.0        1
      52.214      311.251      1.0        1
     116.018      312.180      1.0        1
     179.810      313.109      1.0        1
     243.589      314.039      1.0        1
     307.354      314.970      1.0        1
      11.107      315.901      1.0        1
      74.846      316.833      1.0        1
     138.572      317.766      1.0        1
     202.284      318.700      1.0        1
     265.984      319.634      1.0        1
     329.669      320.569      1.0        1
      33.342      321.504      1.0        1
      97.000      322.440      1.0        1
     160.645      323.377      1.0        1
     224.276      324.314      1.0        1
     287.893      325.252      1.0        1
     351.496      326.191      1.0        1
      55.085      327.130      1.0        1
     118.659      328.070      1.0        1
     182.220      329.010      1.0        1
     245.766      329.952      1.0        1
     309.298      330.893      1.0        1
      12.815      331.836      1.0        1
      76.318      332.779      1.0        1
     139.806      333.722      1.0        1
     203.280      334.666      1.0        1
     266.738      335.611      1.0        1
     330.182      336.556      1.0        1
      33.611      337.502      1.0        1
      97.025      338.449      1.0        1
     160.423      339.396      1.0        1
     223.807      340.343      1.0        1
     287.175      341.292      1.0        1
     350.528      342.240      1.0        1
      53.865      343.190      1.0        1
     117.186      344.140      1.0        1
     180.492      345.090      1.0        1
     243.783      346.041      1.0        1
     307.057      346.992      1.0        1
      10.316      347.945      1.0        1
      73.558      348.897      1.0        1
     136.785      349.850      1.0        1
     199.995      350.804      1.0        1
     263.189      351.758      1.0        1
     326.366      352.713      1.0        1
      29.528      353.668      1.0        1
      92.672      354.624      1.0        1
     155.800      355.580      1.0        1
     218.912      356.537      1.0        1
     282.006      357.494      1.0        1
     345.084      358.451      1.0        1
      48.145      359.410      1.0        1
     111.188      360.368      1.0        1
     174.215      361.327      1.0        1
     237.224      362.287      1.0        1
     300.216      363.247      1.0        1
       3.190      364.208      1.0        1
      66.147      365.169      1.0        1
     129.087      366.130      1.0        1
     192.008      367.092      1.0        1
     254.912      368.054      1.0        1
     317.798      369.017      1.0        1
      20.666      369.981      1.0        1
      83.516      370.944      1.0        1
     146.347      371.908      1.0        1
     209.161      372.873      1.0        1
     271.956      373.838      1.0        1
     334.732      374.803      1.0        1
      37.490      375.769      1.0        1
     100.230      376.735      1.0        1
     162.950      377.702      1.0        1
     225.652      378.669      1.0        1
     288.335      379.637      1.0        1
     350.999      380.604      1.0        1
      53.643      381.573      1.0        1
     116.269      382.541      1.0        1
     178.875      383.510      1.0        1
     241.461      384.480      1.0        1
     304.029      385.449      1.0        1
       6.576      386.419      1.0        1
      69.104      387.390      1.0        1
     131.612      388.361      1.0        1
     194.100      389.332      1.0        1
     256.568      390.304      1.0        1
     319.016      391.275      1.0        1
      21.444      392.248      1.0        1
      83.851      393.220      1.0        1
     146.238      394.193      1.0        1
     208.604      395.166      1.0        1
     270.950      396.140      1.0        1
     333.275      397.114      1.0        1
      35.580      398.088      1.0        1
      97.863      399.063      1.0        1
     160.125      400.037      1.0        1
     222.367      401.013      1.0        1
     284.587      401.988      1.0        1
     346.785      402.964      1.0        1
      48.962      403.940      1.0        1
     111.118      404.916      1.0        1
     173.252      405.893      1.0        1
     235.364      406.870      1.0        1
     297.455      407.847      1.0        1
     359.523      408.824      1.0        1
      61.569      409.802      1.0        1
     123.594      410.780      1.0        1
     185.595      411.758      1.0        1
     247.575      412.737      1.0        1
     309.532      413.715      1.0        1
      11.466      414.694      1.0        1
      73.378      415.673      1.0        1
     135.267      416.653      1.0        1
     197.133      417.633      1.0        1
     258.976      418.612      1.0        1
     320.796      419.593      1.0        1
      22.592      420.573      1.0        1
      84.366      421.553      1.0        1
     146.115      422.534      1.0        1
     207.842      423.515      1.0        1
     269.544      424.496      1.0        1
     331.223      425.478      1.0        1
      32.878      426.459      1.0        1
      94.509      427.441      1.0        1
     156.115      428.423      1.0        1
     217.698      429.405      1.0        1
     279.256      430.387      1.0        1
     340.790      431.370      1.0        1
      42.299      432.353      1.0        1
     103.783      433.335      1.0        1
     165.243      434.318      1.0        1
     226.678      435.301      1.0        1
     288.087      436.285      1.0        1
     349.472      437.268      1.0        1
      50.831      438.252      1.0        1
     112.165      439.235      1.0        1
     173.474      440.219      1.0        1
     234.757      441.203      1.0        1
     296.014      442.187      1.0        1
     357.246      443.171      1.0        1
      58.451      444.156      1.0        1
     119.631      445.140      1.0        1
     180.784      446.125      1.0        1
     241.912      447.109      1.0        1
     303.012      448.094      1.0        1
       4.087      449.079      1.0        1
      65.134      450.064      1.0        1
     126.155      451.049      1.0        1
     187.149      452.034      1.0        1
     248.116      453.019      1.0        1
     309.056      454.004      1.0        1
       9.969      454.989      1.0        1
      70.854      455.975      1.0        1
     131.713      456.960      1.0        1
     192.543      457.946      1.0        1
     253.346      458.931      1.0        1
     314.121      459.917      1.0        1
      14.868      460.902      1.0        1
      75.587      461.888      1.0        1
     136.278      462.874      1.0        1
     196.941      463.859      1.0        1
     257.575      464.845      1.0        1
     318.181      465.831      1.0        1
      18.758      466.817      1.0        1
      79.306      467.803      1.0        1
     139.826      468.788      1.0        1
     200.316      469.774      1.0        1
     260.777      470.760      1.0        1
     321.210      471.746      1.0        1
      21.612      472.731      1.0        1
      81.986      473.717      1.0        1
     142.329      474.703      1.0        1
     202.643      475.689      1.0        1
     262.927      476.674      1.0        1
     323.181      477.660      1.0        1
      23.405      478.646      1.0        1
      83.599      479.631      1.0        1
     143.762      480.617      1.0        1
     203.895      481.602      1.0        1
     263.998      482.588      1.0        1
     324.069      483.573      1.0        1
      24.110      484.559      1.0        1
      84.120      485.544      1.0        1
     144.099      486.529      1.0        1
     204.046      487.514      1.0        1
     263.962      488.499      1.0        1
     323.847      489.484      1.0        1
      23.700      490.469      1.0        1
      83.521      491.454      1.0        1
     143.310      492.438      1.0        1
     203.068      493.423      1.0        1
     262.793      494.407      1.0        1
     322.486      495.392      1.0        1
      22.147      496.376      1.0        1
      81.775      497.360      1.0        1
     141.370      498.344      1.0        1
     200.933      499.328      1.0        1
     260.463      500.312      1.0        1
     319.960      501.295      1.0        1
      19.424      502.279      1.0        1
      78.854      503.262      1.0        1
     138.251      504.245      1.0        1
     197.615      505.229      1.0        1
     256.944      506.211      1.0        1
     316.240      507.194      1.0        1
      15.502      508.177      1.0        1
      74.730      509.159      1.0        1
     133.924      510.141      1.0        1
     193.084      511.123      1.0        1
     252.209      512.105      1.0        1
     311.299      513.087      1.0        1
      10.355      514.068      1.0        1
      69.376      515.050      1.0        1
     128.362      516.031      1.0        1
     187.312      517.011      1.0        1
     246.228      517.992      1.0        1
     305.108      518.973      1.0        1
       3.952      519.953      1.0        1
      62.761      520.933      1.0        1
     121.534      521.913      1.0        1
     180.272      522.892      1.0        1
     238.973      523.872      1.0        1
     297.638      524.851      1.0        1
     356.266      525.829      1.0        1
      54.858      526.808      1.0        1
     113.414      527.786      1.0        1
     171.933      528.764      1.0        1
     230.415      529.742      1.0        1
     288.860      530.720      1.0        1
     347.267      531.697      1.0        1
      45.638      532.674      1.0        1
     103.971      533.651      1.0        1
     162.266      534.627      1.0        1
     220.524      535.604      1.0        1
     278.744      536.579      1.0        1
     336.926      537.555      1.0        1
      35.070      538.530      1.0        1
      93.176      539.505      1.0        1
     151.243      540.480      1.0        1
     209.272      541.454      1.0        1
     267.262      542.428      1.0        1
     325.213      543.402      1.0        1
      23.125      544.376      1.0        1
      80.999      545.349      1.0        1
     138.833      546.321      1.0        1
     196.627      547.294      1.0        1
     254.383      548.266      1.0        1
     312.098      549.238      1.0        1
       9.774      550.209      1.0        1
      67.410      551.180      1.0        1
     125.005      552.151      1.0        1
     182.561      553.121      1.0        1
     240.076      554.091      1.0        1
     297.551      555.060      1.0        1
     354.985      556.030      1.0        1
      52.378      556.998      1.0        1
     109.731      557.967      1.0        1
     167.042      558.935      1.0        1
     224.312      559.903      1.0        1
     281.541      560.870      1.0        1
     338.729      561.837      1.0        1
      35.874      562.803      1.0        1
      92.978      563.769      1.0        1
     150.041      564.735      1.0        1
     207.061      565.700      1.0        1
     264.038      566.665      1.0        1
     320.974      567.629      1.0        1
      17.867      568.593      1.0        1
      74.717      569.556      1.0        1
     131.525      570.519      1.0        1
     188.290      571.482      1.0        1
     245.011      572.444      1.0        1
     301.690      573.406      1.0        1
     358.325      574.367      1.0        1
      54.916      575.328      1.0        1
     111.464      576.288      1.0        1
     167.968      577.248      1.0        1
     224.429      578.208      1.0        1
     280.845      579.166      1.0        1
     337.217      580.125      1.0        1
      33.544      581.083      1.0        1
      89.827      582.040      1.0        1
     146.066      582.997      1.0        1
     202.259      583.954      1.0        1
     258.408      584.910      1.0        1
     314.511      585.865      1.0        1
      10.569      586.820      1.0        1
      66.582      587.774      1.0        1
     122.550      588.728      1.0        1
     178.471      589.682      1.0        1
     234.347      590.635      1.0        1
     290.177      591.587      1.0        1
     345.960      592.539      1.0        1
      41.698      593.490      1.0        1
      97.389      594.441      1.0        1
     153.033      595.391      1.0        1
     208.631      596.340      1.0        1
     264.181      597.289      1.0        1
     319.685      598.238      1.0        1
      15.141      599.186      1.0        1
      70.551      600.133      1.0        1
     125.912      601.080      1.0        1
     181.226      602.026      1.0        1
     236.493      602.972      1.0        1
     291.711      603.917      1.0        1
     346.881      604.861      1.0        1
      42.003      605.805      1.0        1
      97.077      606.748      1.0        1
     152.102      607.691      1.0        1
     207.078      608.633      1.0        1
     262.006      609.574      1.0        1
     316.885      610.515      1.0        1
      11.714      611.455      1.0        1
      66.494      612.395      1.0        1
     121.225      613.334      1.0        1
     175.906      614.272      1.0        1
     230.538      615.210      1.0        1
     285.120      616.147      1.0        1
     339.651      617.083      1.0        1
      34.132      618.019      1.0        1
      88.563      618.954      1.0        1
     142.944      619.889      1.0        1
     197.274      620.822      1.0        1
     251.553      621.756      1.0        1
     305.781      622.688      1.0        1
     359.958      623.620      1.0        1
      54.083      624.551      1.0        1
     108.158      625.481      1.0        1
     162.180      626.411      1.0        1
     216.151      627.340      1.0        1
     270.071      628.268      1.0        1
     323.938      629.196      1.0        1
      17.753      630.123      1.0        1
      71.515      631.049      1.0        1
     125.225      631.975      1.0        1
     178.883      632.900      1.0        1
     232.487      633.824      1.0        1
     286.039      634.747      1.0        1
     339.538      635.670      1.0        1
      32.983      636.592      1.0        1
      86.375      637.513      1.0        1
     139.713      638.433      1.0        1
     192.998      639.353      1.0        1
     246.229      640.272      1.0        1
     299.406      641.190      1.0        1
     352.528      642.108      1.0        1
      45.596      643.025      1.0        1
      98.610      643.940      1.0        1
     151.569      644.856      1.0        1
     204.473      645.770      1.0        1
     257.323      646.684      1.0        1
     310.117      647.597      1.0        1
       2.856      648.509      1.0        1
      55.539      649.420      1.0        1
     108.167      650.331      1.0        1
     160.739      651.240      1.0        1
     213.255      652.149      1.0        1
     265.716      653.057      1.0        1
     318.120      653.965      1.0        1
      10.467      654.871      1.0        1
      62.758      655.777      1.0        1
     114.993      656.682      1.0        1
     167.171      657.586      1.0        1
     219.291      658.489      1.0        1
     271.355      659.391      1.0        1
     323.361      660.293      1.0        1
      15.309      661.194      1.0        1
      67.201      662.094      1.0        1
     119.034      662.993      1.0        1
     170.809      663.891      1.0        1
     222.527      664.788      1.0        1
     274.186      665.685      1.0        1
     325.786      666.580      1.0        1
      17.329      667.475      1.0        1
      68.812      668.369      1.0        1
     120.236      669.262      1.0        1
     171.602      670.154      1.0        1
     222.908      671.045      1.0        1
     274.155      671.936      1.0        1
     325.343      672.825      1.0        1
      16.471      673.714      1.0        1
      67.539      674.601      1.0        1
     118.547      675.488      1.0        1
     169.495      676.374      1.0        1
     220.382      677.259      1.0        1
     271.209      678.143      1.0        1
     321.976      679.026      1.0        1
      12.682      679.908      1.0        1
      63.327      680.790      1.0        1
     113.911      681.670      1.0        1
     164.433      682.550      1.0        1
     214.894      683.428      1.0        1
     265.294      684.306      1.0        1
     315.632      685.182      1.0        1
       5.908      686.058      1.0        1
      56.122      686.933      1.0        1
     106.274      687.807      1.0        1
     156.364      688.679      1.0        1
     206.391      689.551      1.0        1
     256.355      690.422      1.0        1
     306.257      691.292      1.0        1
     356.095      692.161      1.0        1
      45.871      693.029      1.0        1
      95.583      693.896      1.0        1
     145.232      694.762      1.0        1
     194.817      695.627      1.0        1
     244.338      696.491      1.0        1
     293.796      697.354      1.0        1
     343.189      698.216      1.0        1
      32.518      699.077      1.0        1
      81.783      699.937      1.0        1
     130.983      700.796      1.0        1
     180.119      701.654      1.0        1
     229.189      702.511      1.0        1
     278.195      703.367      1.0        1
     327.136      704.222      1.0        1
      16.011      705.076      1.0        1
      64.820      705.929      1.0        1
     113.564      706.781      1.0        1
     162.242      707.631      1.0        1
     210.854      708.481      1.0        1
     259.400      709.330      1.0        1
     307.880      710.178      1.0        1
     356.293      711.024      1.0        1
      44.640      711.870      1.0        1
      92.920      712.714      1.0        1
     141.132      713.557      1.0        1
     189.278      714.400      1.0        1
     237.357      715.241      1.0        1
     285.368      716.081      1.0        1
     333.312      716.920      1.0        1
      21.188      717.758      1.0        1
      68.996      718.595      1.0        1
     116.736      719.431      1.0        1
     164.407      720.266      1.0        1
     212.011      721.099      1.0        1
     259.546      721.932      1.0        1
     307.012      722.763      1.0        1
     354.409      723.594      1.0        1
      41.738      724.423      1.0        1
      88.997      725.251      1.0        1
     136.187      726.078      1.0        1
     183.308      726.904      1.0        1
     230.359      727.728      1.0        1
     277.340      728.552      1.0        1
     324.251      729.374      1.0        1
      11.092      730.196      1.0        1
      57.863      731.016      1.0        1
     104.563      731.835      1.0        1
     151.193      732.652      1.0        1
     197.753      733.469      1.0        1
     244.241      734.285      1.0        1
     290.658      735.099      1.0        1
     337.004      735.912      1.0        1
      23.279      736.724      1.0        1
      69.482      737.535      1.0        1
     115.614      738.345      1.0        1
     161.674      739.153      1.0        1
     207.661      739.961      1.0        1
     253.577      740.767      1.0        1
     299.420      741.572      1.0        1
     345.191      742.375      1.0        1
      30.890      743.178      1.0        1
      76.515      743.979      1.0        1
     122.068      744.779      1.0        1
     167.547      745.578      1.0        1
     212.954      746.376      1.0        1
     258.286      747.172      1.0        1
     303.546      747.968      1.0        1
     348.731      748.762      1.0        1
      33.843      749.555      1.0        1
      78.881      750.346      1.0        1
     123.845      751.137      1.0        1
     168.734      751.926      1.0        1
     213.549      752.714      1.0        1
     258.289      753.500      1.0        1
     302.954      754.286      1.0        1
     347.545      755.070      1.0        1
      32.060      755.853      1.0        1
      76.500      756.634      1.0        1
     120.865      757.415      1.0        1
     165.154      758.194      1.0        1
     209.367      758.972      1.0        1
     253.504      759.748      1.0        1
     297.566      760.524      1.0        1
     341.551      761.298      1.0        1
      25.460      762.070      1.0        1
      69.292      762.842      1.0        1
     113.048      763.612      1.0        1
     156.727      764.381      1.0        1
     200.329      765.148      1.0        1
     243.853      765.915      1.0        1
     287.301      766.680      1.0        1
     330.671      767.443      1.0        1
      13.963      768.206      1.0        1
      57.178      768.967      1.0        1
     100.315      769.727      1.0        1
     143.374      770.485      1.0        1
     186.354      771.242      1.0        1
     229.257      771.998      1.0        1
     272.080      772.752      1.0        1
     314.825      773.506      1.0        1
     357.492      774.257      1.0        1
      40.079      775.008      1.0        1
      82.587      775.757      1.0        1
     125.016      776.505      1.0        1
     167.365      777.251      1.0        1
     209.635      777.996      1.0        1
     251.825      778.740      1.0        1
     293.936      779.482      1.0        1
     335.966      780.223      1.0        1
      17.916      780.963      1.0        1
      59.786      781.701      1.0        1
     101.575      782.438      1.0        1
     143.283      783.174      1.0        1
     184.911      783.908      1.0        1
     226.458      784.641      1.0        1
     267.924      785.372      1.0        1
     309.308      786.102      1.0        1
     350.611      786.831      1.0        1
      31.833      787.558      1.0        1
      72.973      788.284      1.0        1
     114.031      789.008      1.0        1
     155.007      789.731      1.0        1
     195.900      790.453      1.0        1
     236.712      791.173      1.0        1
     277.441      791.892      1.0        1
     318.087      792.609      1.0        1
     358.651      793.325      1.0        1
      39.132      794.040      1.0        1
      79.530      794.753      1.0        1
     119.844      795.464      1.0        1
     160.076      796.175      1.0        1
     200.223      796.884      1.0        1
     240.287      797.591      1.0        1
     280.268      798.297      1.0        1
     320.164      799.001      1.0        1
     359.976      799.705      1.0        1
      39.704      800.406      1.0        1
      79.348      801.106      1.0        1
     118.907      801.805      1.0        1
     158.381      802.502      1.0        1
     197.771      803.198      1.0        1
     237.076      803.892      1.0        1
     276.295      804.585      1.0        1
     315.429      805.277      1.0        1
     354.478      805.966      1.0        1
      33.441      806.655      1.0        1
      72.319      807.342      1.0        1
     111.111      808.027      1.0        1
     149.816      808.711      1.0        1
     188.436      809.394      1.0        1
     226.969      810.075      1.0        1
     265.416      810.754      1.0        1
     303.776      811.432      1.0        1
     342.050      812.109      1.0        1
      20.236      812.784      1.0        1
      58.336      813.457      1.0        1
      96.349      814.129      1.0        1
     134.274      814.800      1.0        1
     172.111      815.469      1.0        1
     209.862      816.136      1.0        1
     247.524      816.802      1.0        1
     285.099      817.467      1.0        1
     322.585      818.129      1.0        1
     359.984      818.791      1.0        1
      37.294      819.451      1.0        1
      74.515      820.109      1.0        1
     111.648      820.766      1.0        1
     148.693      821.421      1.0        1
     185.648      822.074      1.0        1
     222.515      822.727      1.0        1
     259.292      823.377      1.0        1
     295.980      824.026      1.0        1
     332.578      824.674      1.0        1
       9.087      825.319      1.0        1
      45.507      825.964      1.0        1
      81.836      826.606      1.0        1
     118.076      827.248      1.0        1
     154.225      827.887      1.0        1
     190.284      828.525      1.0        1
     226.253      829.162      1.0        1
     262.131      829.797      1.0        1
     297.918      830.430      1.0        1
     333.615      831.062      1.0        1
       9.220      831.692      1.0        1
      44.735      832.320      1.0        1
      80.158      832.947      1.0        1
     115.490      833.573      1.0        1
     150.730      834.196      1.0        1
     185.879      834.819      1.0        1
     220.936      835.439      1.0        1
     255.901      836.058      1.0        1
     290.774      836.675      1.0        1
     325.554      837.291      1.0        1
       0.243      837.905      1.0        1
      34.839      838.518      1.0        1
      69.342      839.129      1.0        1
     103.753      839.738      1.0        1
     138.071      840.346      1.0        1
     172.295      840.952      1.0        1
     206.427      841.556      1.0        1
     240.465      842.159      1.0        1
     274.410      842.760      1.0        1
     308.261      843.359      1.0        1
     342.019      843.957      1.0        1
      15.683      844.553      1.0        1
      49.253      845.148      1.0        1
      82.729      845.741      1.0        1
     116.111      846.332      1.0        1
     149.398      846.922      1.0        1
     182.591      847.509      1.0        1
     215.689      848.096      1.0        1
     248.693      848.680      1.0        1
     281.601      849.263      1.0        1
     314.415      849.845      1.0        1
     347.134      850.424      1.0        1
      19.757      851.002      1.0        1
      52.285      851.578      1.0        1
      84.717      852.153      1.0        1
     117.054      852.726      1.0        1
     149.295      853.297      1.0        1
     181.440      853.867      1.0        1
     213.490      854.434      1.0        1
     245.443      855.001      1.0        1
     277.299      855.565      1.0        1
     309.060      856.128      1.0        1
     340.724      856.689      1.0        1
      12.291      857.248      1.0        1
      43.761      857.806      1.0        1
      75.134      858.362      1.0        1
     106.411      858.916      1.0        1
     137.590      859.469      1.0        1
     168.672      860.020      1.0        1
     199.657      860.569      1.0        1
     230.544      861.116      1.0        1
     261.333      861.662      1.0        1
     292.025      862.206      1.0        1
     322.619      862.748      1.0        1
     353.114      863.289      1.0        1
      23.512      863.827      1.0        1
      53.811      864.364      1.0        1
      84.012      864.900      1.0        1
     114.114      865.433      1.0        1
     144.118      865.965      1.0        1
     174.023      866.495      1.0        1
     203.829      867.024      1.0        1
     233.536      867.550      1.0        1
     263.144      868.075      1.0        1
     292.653      868.598      1.0        1
     322.063      869.120      1.0        1
     351.372      869.639      1.0        1
      20.583      870.157      1.0        1
      49.693      870.673      1.0        1
      78.704      871.188      1.0        1
     107.615      871.700      1.0        1
     136.426      872.211      1.0        1
     165.136      872.720      1.0        1
     193.747      873.227      1.0        1
     222.257      873.733      1.0        1
     250.666      874.237      1.0        1
     278.975      874.739      1.0        1
     307.182      875.239      1.0        1
     335.290      875.737      1.0        1
       3.296      876.234      1.0        1
      31.201      876.729      1.0        1
      59.004      877.222      1.0        1
      86.707      877.713      1.0        1
     114.308      878.202      1.0        1
     141.807      878.690      1.0        1
     169.205      879.176      1.0        1
     196.500      879.660      1.0        1
     223.694      880.142      1.0        1
     250.786      880.623      1.0        1
     277.776      881.102      1.0        1
     304.664      881.578      1.0        1
     331.449      882.053      1.0        1
     358.132      882.527      1.0        1
      24.712      882.998      1.0        1
      51.190      883.468      1.0        1
      77.565      883.936      1.0        1
     103.837      884.402      1.0        1
     130.005      884.866      1.0        1
     156.071      885.328      1.0        1
     182.034      885.789      1.0        1
     207.893      886.247      1.0        1
     233.649      886.704      1.0        1
     259.301      887.159      1.0        1
     284.850      887.612      1.0        1
     310.295      888.064      1.0        1
     335.636      888.513      1.0        1
       0.873      888.961      1.0        1
      26.006      889.407      1.0        1
      51.035      889.851      1.0        1
      75.959      890.293      1.0        1
     100.780      890.733      1.0        1
     125.495      891.172      1.0        1
     150.106      891.608      1.0        1
     174.613      892.043      1.0        1
     199.014      892.476      1.0        1
     223.311      892.907      1.0        1
     247.503      893.336      1.0        1
     271.590      893.763      1.0        1
     295.571      894.189      1.0        1
     319.447      894.613      1.0        1
     343.218      895.034      1.0        1
       6.884      895.454      1.0        1
      30.443      895.872      1.0        1
      53.897      896.288      1.0        1
      77.246      896.702      1.0        1
     100.488      897.115      1.0        1
     123.625      897.525      1.0        1
     146.655      897.934      1.0        1
     169.579      898.341      1.0        1
     192.397      898.746      1.0        1
     215.108      899.149      1.0        1
     237.714      899.550      1.0        1
     260.212      899.949      1.0        1
     282.604      900.346      1.0        1
     304.889      900.742      1.0        1
     327.067      901.135      1.0        1
     349.139      901.527      1.0        1
      11.103      901.916      1.0        1
      32.960      902.304      1.0        1
      54.710      902.690      1.0        1
      76.353      903.074      1.0        1
      97.888      903.456      1.0        1
     119.316      903.837      1.0        1
     140.636      904.215      1.0        1
     161.849      904.591      1.0        1
     182.954      904.966      1.0        1
     203.951      905.338      1.0        1
     224.840      905.709      1.0        1
     245.621      906.078      1.0        1
     266.294      906.445      1.0        1
     286.859      906.810      1.0        1
     307.315      907.173      1.0        1
     327.663      907.534      1.0        1
     347.903      907.893      1.0        1
       8.034      908.250      1.0        1
      28.056      908.606      1.0        1
      47.970      908.959      1.0        1
      67.775      909.310      1.0        1
      87.471      909.660      1.0        1
     107.058      910.007      1.0        1
     126.536      910.353      1.0        1
     145.905      910.697      1.0        1
     165.165      911.039      1.0        1
     184.316      911.379      1.0        1
     203.357      911.716      1.0        1
     222.288      912.052      1.0        1
     241.111      912.386      1.0        1
     259.823      912.719      1.0        1
     278.426      913.049      1.0        1
     296.919      913.377      1.0        1
     315.302      913.703      1.0        1
     333.575      914.027      1.0        1
     351.738      914.350      1.0        1
       9.792      914.670      1.0        1
      27.735      914.989      1.0        1
      45.567      915.305      1.0        1
      63.290      915.620      1.0        1
      80.902      915.932      1.0        1
      98.403      916.243      1.0        1
     115.794      916.551      1.0        1
     133.075      916.858      1.0        1
     150.245      917.163      1.0        1
     167.303      917.466      1.0        1
     184.252      917.766      1.0        1
     201.089      918.065      1.0        1
     217.815      918.362      1.0        1
     234.430      918.657      1.0        1
     250.934      918.950      1.0        1
     267.327      919.241      1.0        1
     283.609      919.530      1.0        1
     299.779      919.817      1.0        1
     315.838      920.102      1.0        1
     331.785      920.385      1.0        1
     347.621      920.666      1.0        1
       3.345      920.945      1.0        1
      18.958      921.222      1.0        1
      34.458      921.497      1.0        1
      49.847      921.770      1.0        1
      65.124      922.042      1.0        1
      80.290      922.311      1.0        1
      95.343      922.578      1.0        1
     110.284      922.843      1.0        1
     125.113      923.106      1.0        1
     139.829      923.368      1.0        1
     154.434      923.627      1.0        1
     168.926      923.884      1.0        1
     183.306      924.139      1.0        1
     197.573      924.392      1.0        1
     211.728      924.644      1.0        1
     225.770      924.893      1.0        1
     239.700      925.140      1.0        1
     253.516      925.385      1.0        1
     267.221      925.629      1.0        1
     280.812      925.870      1.0        1
     294.290      926.109      1.0        1
     307.656      926.346      1.0        1
     320.908      926.582      1.0        1
     334.048      926.815      1.0        1
     347.074      927.046      1.0        1
     359.987      927.275      1.0        1
      12.787      927.502      1.0        1
      25.474      927.728      1.0        1
      38.047      927.951      1.0        1
      50.507      928.172      1.0        1
      62.854      928.391      1.0        1
      75.087      928.608      1.0        1
      87.206      928.823      1.0        1
      99.212      929.036      1.0        1
     111.104      929.247      1.0        1
     122.883      929.456      1.0        1
     134.548      929.664      1.0        1
     146.099      929.869      1.0        1
     157.536      930.072      1.0        1
     168.859      930.273      1.0        1
     180.068      930.472      1.0        1
     191.164      930.668      1.0        1
     202.145      930.863      1.0        1
     213.012      931.056      1.0        1
     223.765      931.247      1.0        1
     234.404      931.436      1.0        1
     244.928      931.623      1.0        1
     255.339      931.808      1.0        1
     265.635      931.990      1.0        1
     275.816      932.171      1.0        1
     285.884      932.350      1.0        1
     295.836      932.526      1.0        1
     305.675      932.701      1.0        1
     315.398      932.874      1.0        1
     325.007      933.044      1.0        1
     334.502      933.213      1.0        1
     343.882      933.379      1.0        1
     353.147      933.544      1.0        1
       2.297      933.706      1.0        1
      11.333      933.866      1.0        1
      20.253      934.025      1.0        1
      29.059      934.181      1.0        1
      37.750      934.335      1.0        1
      46.326      934.488      1.0        1
      54.787      934.638      1.0        1
      63.133      934.786      1.0        1
      71.364      934.932      1.0        1
      79.480      935.076      1.0        1
      87.481      935.218      1.0        1
      95.366      935.358      1.0        1
     103.137      935.496      1.0        1
     110.792      935.632      1.0        1
     118.331      935.766      1.0        1
     125.756      935.897      1.0        1
     133.065      936.027      1.0        1
     140.259      936.155      1.0        1
     147.338      936.281      1.0        1
     154.301      936.404      1.0        1
     161.148      936.526      1.0        1
     167.880      936.645      1.0        1
     174.497      936.763      1.0        1
     180.998      936.878      1.0        1
     187.383      936.991      1.0        1
     193.653      937.103      1.0        1
     199.808      937.212      1.0        1
     205.846      937.319      1.0        1
     211.769      937.424      1.0        1
     217.576      937.527      1.0        1
     223.268      937.628      1.0        1
     228.843      937.727      1.0        1
     234.303      937.824      1.0        1
     239.648      937.919      1.0        1
     244.876      938.012      1.0        1
     249.988      938.103      1.0        1
     254.985      938.191      1.0        1
     259.866      938.278      1.0        1
     264.630      938.362      1.0        1
     269.279      938.445      1.0        1
     273.812      938.525      1.0        1
     278.229      938.604      1.0        1
     282.530      938.680      1.0        1
     286.715      938.754      1.0        1
     290.783      938.827      1.0        1
     294.736      938.897      1.0        1
     298.573      938.965      1.0        1
     302.294      939.031      1.0        1
     305.898      939.095      1.0        1
     309.386      939.157      1.0        1
     312.759      939.217      1.0        1
     316.015      939.275      1.0        1
     319.155      939.330      1.0        1
     322.179      939.384      1.0        1
     325.086      939.436      1.0        1
     327.878      939.485      1.0        1
     330.553      939.533      1.0        1
     333.112      939.578      1.0        1
     335.554      939.621      1.0        1
     337.881      939.663      1.0        1
     340.091      939.702      1.0        1
     342.185      939.739      1.0        1
     344.163      939.774      1.0        1
     346.024      939.807      1.0        1
     347.769      939.838      1.0        1
     349.398      939.867      1.0        1
     350.910      939.894      1.0        1
     352.306      939.919      1.0        1
     353.586      939.941      1.0        1
     354.750      939.962      1.0        1
     355.797      939.981      1.0        1
     356.728      939.997      1.0        1
     357.542      940.012      1.0        1
     358.240      940.024      1.0        1
     358.822      940.034      1.0        1
     359.287      940.043      1.0        1
     359.636      940.049      1.0        1
     359.869      940.053      1.0        1
     359.985      940.055      2.0        1
     359.869      940.053      1.0        1
     359.636      940.049      1.0        1
     359.287      940.043      1.0        1
     358.822      940.034      1.0        1
     358.240      940.024      1.0        1
     357.542      940.012      1.0        1
     356.728      939.997      1.0        1
     355.797      939.981      1.0        1
     354.750      939.962      1.0        1
     353.586      939.941      1.0        1
     352.306      939.919      1.0        1
     350.910      939.894      1.0        1
     349.398      939.867      1.0        1
     347.769      939.838      1.0        1
     346.024      939.807      1.0        1
     344.163      939.774      1.0        1
     342.185      939.739      1.0        1
     340.091      939.702      1.0        1
     337.881      939.663      1.0        1
     335.554      939.621      1.0        1
     333.112      939.578      1.0        1
     330.553      939.533      1.0        1
     327.878      939.485      1.0        1
     325.086      939.436      1.0        1
     322.179      939.384      1.0        1
     319.155      939.330      1.0        1
     316.015      939.275      1.0        1
     312.759      939.217      1.0        1
     309.386      939.157      1.0        1
     305.898      939.095      1.0        1
     302.294      939.031      1.0        1
     298.573      938.965      1.0        1
     294.736      938.897      1.0        1
     290.783      938.827      1.0        1
     286.715      938.754      1.0        1
     282.530      938.680      1.0        1
     278.229      938.604      1.0        1
     273.812      938.525      1.0        1
     269.279      938.445      1.0        1
     264.630      938.362      1.0        1
     259.866      938.278      1.0        1
     254.985      938.191      1.0        1
     249.988      938.103      1.0        1
     244.876      938.012      1.0        1
     239.648      937.919      1.0        1
     234.303      937.824      1.0        1
     228.843      937.727      1.0        1
     223.268      937.628      1.0        1
     217.576      937.527      1.0        1
     211.769      937.424      1.0        1
     205.846      937.319      1.0        1
     199.808      937.212      1.0        1
     193.653      937.103      1.0        1
     187.383      936.991      1.0        1
     180.998      936.878      1.0        1
     174.497      936.763      1.0        1
     167.880      936.645      1.0        1
     161.148      936.526      1.0        1
     154.301      936.404      1.0        1
     147.338      936.281      1.0        1
     140.259      936.155      1.0        1
     133.065      936.027      1.0        1
     125.756      935.897      1.0        1
     118.331      935.766      1.0        1
     110.792      935.632      1.0        1
     103.137      935.496      1.0        1
      95.366      935.358      1.0        1
      87.481      935.218      1.0        1
      79.480      935.076      1.0        1
      71.364      934.932      1.0        1
      63.133      934.786      1.0        1
      54.787      934.638      1.0        1
      46.326      934.488      1.0        1
      37.750      934.335      1.0        1
      29.059      934.181      1.0        1
      20.253      934.025      1.0        1
      11.333      933.866      1.0        1
       2.297      933.706      1.0        1
     353.147      933.544      1.0        1
     343.882      933.379      1.0        1
     334.502      933.213      1.0        1
     325.007      933.044      1.0        1
     315.398      932.874      1.0        1
     305.675      932.701      1.0        1
     295.836      932.526      1.0        1
     285.884      932.350      1.0        1
     275.816      932.171      1.0        1
     265.635      931.990      1.0        1
     255.339      931.808      1.0        1
     244.928      931.623      1.0        1
     234.404      931.436      1.0        1
     223.765      931.247      1.0        1
     213.012      931.056      1.0        1
     202.145      930.863      1.0        1
     191.164      930.668      1.0        1
     180.068      930.472      1.0        1
     168.859      930.273      1.0        1
     157.536      930.072      1.0        1
     146.099      929.869      1.0        1
     134.548      929.664      1.0        1
     122.883      929.456      1.0        1
     111.104      929.247      1.0        1
      99.212      929.036      1.0        1
      87.206      928.823      1.0        1
      75.087      928.608      1.0        1
      62.854      928.391      1.0        1
      50.507      928.172      1.0        1
      38.047      927.951      1.0        1
      25.474      927.728      1.0        1
      12.787      927.502      1.0        1
     359.987      927.275      1.0        1
     347.074      927.046      1.0        1
     334.048      926.815      1.0        1
     320.908      926.582      1.0        1
     307.656      926.346      1.0        1
     294.290      926.109      1.0        1
     280.812      925.870      1.0        1
     267.221      925.629      1.0        1
     253.516      925.385      1.0        1
     239.700      925.140      1.0        1
     225.770      924.893      1.0        1
     211.728      924.644      1.0        1
     197.573      924.392      1.0        1
     183.306      924.139      1.0        1
     168.926      923.884      1.0        1
     154.434      923.627      1.0        1
     139.829      923.368      1.0        1
     125.113      923.106      1.0        1
     110.284      922.843      1.0        1
      95.343      922.578      1.0        1
      80.290      922.311      1.0        1
      65.124      922.042      1.0        1
      49.847      921.770      1.0        1
      34.458      921.497      1.0        1
      18.958      921.222      1.0        1
       3.345      920.945      1.0        1
     347.621      920.666      1.0        1
     331.785      920.385      1.0        1
     315.838      920.102      1.0        1
     299.779      919.817      1.0        1
     283.609      919.530      1.0        1
     267.327      919.241      1.0        1
     250.934      918.950      1.0        1
     234.430      918.657      1.0        1
     217.815      918.362      1.0        1
     201.089      918.065      1.0        1
     184.252      917.766      1.0        1
     167.303      917.466      1.0        1
     150.245      917.163      1.0        1
     133.075      916.858      1.0        1
     115.794      916.551      1.0        1
      98.403      916.243      1.0        1
      80.902      915.932      1.0        1
      63.290      915.620      1.0        1
      45.567      915.305      1.0        1
      27.735      914.989      1.0        1
       9.792      914.670      1.0        1
     351.738      914.350      1.0        1
     333.575      914.027      1.0        1
     315.302      913.703      1.0        1
     296.919      913.377      1.0        1
     278.426      913.049      1.0        1
     259.823      912.719      1.0        1
     241.111      912.386      1.0        1
     222.288      912.052      1.0        1
     203.357      911.716      1.0        1
     184.316      911.379      1.0        1
     165.165      911.039      1.0        1
     145.905      910.697      1.0        1
     126.536      910.353      1.0        1
     107.058      910.007      1.0        1
      87.471      909.660      1.0        1
      67.775      909.310      1.0        1
      47.970      908.959      1.0        1
      28.056      908.606      1.0        1
       8.034      908.250      1.0        1
     347.903      907.893      1.0        1
     327.663      907.534      1.0        1
     307.315      907.173      1.0        1
     286.859      906.810      1.0        1
     266.294      906.445      1.0        1
     245.621      906.078      1.0        1
     224.840      905.709      1.0        1
     203.951      905.338      1.0        1
     182.954      904.966      1.0        1
     161.849      904.591      1.0        1
     140.636      904.215      1.0        1
     119.316      903.837      1.0        1
      97.888      903.456      1.0        1
      76.353      903.074      1.0        1
      54.710      902.690      1.0        1
      32.960      902.304      1.0        1
      11.103      901.916      1.0        1
     349.139      901.527      1.0        1
     327.067      901.135      1.0        1
     304.889      900.742      1.0        1
     282.604      900.346      1.0        1
     260.212      899.949      1.0        1
     237.714      899.550      1.0        1
     215.108      899.149      1.0        1
     192.397      898.746      1.0        1
     169.579      898.341      1.0        1
     146.655      897.934      1.0        1
     123.625      897.525      1.0        1
     100.488      897.115      1.0        1
      77.246      896.702      1.0        1
      53.897      896.288      1.0        1
      30.443      895.872      1.0        1
       6.884      895.454      1.0        1
     343.218      895.034      1.0        1
     319.447      894.613      1.0        1
     295.571      894.189      1.0        1
     271.590      893.763      1.0        1
     247.503      893.336      1.0        1
     223.311      892.907      1.0        1
     199.014      892.476      1.0        1
     174.613      892.043      1.0        1
     150.106      891.608      1.0        1
     125.495      891.172      1.0        1
     100.780      890.733      1.0        1
      75.959      890.293      1.0        1
      51.035      889.851      1.0        1
      26.006      889.407      1.0        1
       0.873      888.961      1.0        1
     335.636      888.513      1.0        1
     310.295      888.064      1.0        1
     284.850      887.612      1.0        1
     259.301      887.159      1.0        1
     233.649      886.704      1.0        1
     207.893      886.247      1.0        1
     182.034      885.789      1.0        1
     156.071      885.328      1.0        1
     130.005      884.866      1.0        1
     103.837      884.402      1.0        1
      77.565      883.936      1.0        1
      51.190      883.468      1.0        1
      24.712      882.998      1.0        1
     358.132      882.527      1.0        1
     331.449      882.053      1.0        1
     304.664      881.578      1.0        1
     277.776      881.102      1.0        1
     250.786      880.623      1.0        1
     223.694      880.142      1.0        1
     196.500      879.660      1.0        1
     169.205      879.176      1.0        1
     141.807      878.690      1.0        1
     114.308      878.202      1.0        1
      86.707      877.713      1.0        1
      59.004      877.222      1.0        1
      31.201      876.729      1.0        1
       3.296      876.234      1.0        1
     335.290      875.737      1.0        1
     307.182      875.239      1.0        1
     278.975      874.739      1.0        1
     250.666      874.237      1.0        1
     222.257      873.733      1.0        1
     193.747      873.227      1.0        1
     165.136      872.720      1.0        1
     136.426      872.211      1.0        1
     107.615      871.700      1.0        1
      78.704      871.188      1.0        1
      49.693      870.673      1.0        1
      20.583      870.157      1.0        1
     351.372      869.639      1.0        1
     322.063      869.120      1.0        1
     292.653      868.598      1.0        1
     263.144      868.075      1.0        1
     233.536      867.550      1.0        1
     203.829      867.024      1.0        1
     174.023      866.495      1.0        1
     144.118      865.965      1.0        1
     114.114      865.433      1.0        1
      84.012      864.900      1.0        1
      53.811      864.364      1.0        1
      23.512      863.827      1.0        1
     353.114      863.289      1.0        1
     322.619      862.748      1.0        1
     292.025      862.206      1.0        1
     261.333      861.662      1.0        1
     230.544      861.116      1.0        1
     199.657      860.569      1.0        1
     168.672      860.020      1.0        1
     137.590      859.469      1.0        1
     106.411      858.916      1.0        1
      75.134      858.362      1.0        1
      43.761      857.806      1.0        1
      12.291      857.248      1.0        1
     340.724      856.689      1.0        1
     309.060      856.128      1.0        1
     277.299      855.565      1.0        1
     245.443      855.001      1.0        1
     213.490      854.434      1.0        1
     181.440      853.867      1.0        1
     149.295      853.297      1.0        1
     117.054      852.726      1.0        1
      84.717      852.153      1.0        1
      52.285      851.578      1.0        1
      19.757      851.002      1.0        1
     347.134      850.424      1.0        1
     314.415      849.845      1.0        1
     281.601      849.263      1.0        1
     248.693      848.680      1.0        1
     215.689      848.096      1.0        1
     182.591      847.509      1.0        1
     149.398      846.922      1.0        1
     116.111      846.332      1.0        1
      82.729      845.741      1.0        1
      49.253      845.148      1.0        1
      15.683      844.553      1.0        1
     342.019      843.957      1.0        1
     308.261      843.359      1.0        1
     274.410      842.760      1.0        1
     240.465      842.159      1.0        1
     206.427      841.556      1.0        1
     172.295      840.952      1.0        1
     138.071      840.346      1.0        1
     103.753      839.738      1.0        1
      69.342      839.129      1.0        1
      34.839      838.518      1.0        1
       0.243      837.905      1.0        1
     325.554      837.291      1.0        1
     290.774      836.675      1.0        1
     255.901      836.058      1.0        1
     220.936      835.439      1.0        1
     185.879      834.819      1.0        1
     150.730      834.196      1.0        1
     115.490      833.573      1.0        1
      80.158      832.947      1.0        1
      44.735      832.320      1.0        1
       9.220      831.692      1.0        1
     333.615      831.062      1.0        1
     297.918      830.430      1.0        1
     262.131      829.797      1.0        1
     226.253      829.162      1.0        1
     190.284      828.525      1.0        1
     154.225      827.887      1.0        1
     118.076      827.248      1.0        1
      81.836      826.606      1.0        1
      45.507      825.964      1.0        1
       9.087      825.319      1.0        1
     332.578      824.674      1.0        1
     295.980      824.026      1.0        1
     259.292      823.377      1.0        1
     222.515      822.727      1.0        1
     185.648      822.074      1.0        1
     148.693      821.421      1.0        1
     111.648      820.766      1.0        1
      74.515      820.109      1.0        1
      37.294      819.451      1.0        1
     359.984      818.791      1.0        1
     322.585      818.129      1.0        1
     285.099      817.467      1.0        1
     247.524      816.802      1.0        1
     209.862      816.136      1.0        1
     172.111      815.469      1.0        1
     134.274      814.800      1.0        1
      96.349      814.129      1.0        1
      58.336      813.457      1.0        1
      20.236      812.784      1.0        1
     342.050      812.109      1.0        1
     303.776      811.432      1.0        1
     265.416      810.754      1.0        1
     226.969      810.075      1.0        1
     188.436      809.394      1.0        1
     149.816      808.711      1.0        1
     111.111      808.027      1.0        1
      72.319      807.342      1.0        1
      33.441      806.655      1.0        1
     354.478      805.966      1.0        1
     315.429      805.277      1.0        1
     276.295      804.585      1.0        1
     237.076      803.892      1.0        1
     197.771      803.198      1.0        1
     158.381      802.502      1.0        1
     118.907      801.805      1.0        1
      79.348      801.106      1.0        1
      39.704      800.406      1.0        1
     359.976      799.705      1.0        1
     320.164      799.001      1.0        1
     280.268      798.297      1.0        1
     240.287      797.591      1.0        1
     200.223      796.884      1.0        1
     160.076      796.175      1.0        1
     119.844      795.464      1.0        1
      79.530      794.753      1.0        1
      39.132      794.040      1.0        1
     358.651      793.325      1.0        1
     318.087      792.609      1.0        1
     277.441      791.892      1.0        1
     236.712      791.173      1.0        1
     195.900      790.453      1.0        1
     155.007      789.731      1.0        1
     114.031      789.008      1.0        1
      72.973      788.284      1.0        1
      31.833      787.558      1.0        1
     350.611      786.831      1.0        1
     309.308      786.102      1.0        1
     267.924      785.372      1.0        1
     226.458      784.641      1.0        1
     184.911      783.908      1.0        1
     143.283      783.174      1.0        1
     101.575      782.438      1.0        1
      59.786      781.701      1.0        1
      17.916      780.963      1.0        1
     335.966      780.223      1.0        1
     293.936      779.482      1.0        1
     251.825      778.740      1.0        1
     209.635      777.996      1.0        1
     167.365      777.251      1.0        1
     125.016      776.505      1.0        1
      82.587      775.757      1.0        1
      40.079      775.008      1.0        1
     357.492      774.257      1.0        1
     314.825      773.506      1.0        1
     272.080      772.752      1.0        1
     229.257      771.998      1.0        1
     186.354      771.242      1.0        1
     143.374      770.485      1.0        1
     100.315      769.727      1.0        1
      57.178      768.967      1.0        1
      13.963      768.206      1.0        1
     330.671      767.443      1.0        1
     287.301      766.680      1.0        1
     243.853      765.915      1.0        1
     200.329      765.148      1.0        1
     156.727      764.381      1.0        1
     113.048      763.612      1.0        1
      69.292      762.842      1.0        1
      25.460      762.070      1.0        1
     341.551      761.298      1.0        1
     297.566      760.524      1.0        1
     253.504      759.748      1.0        1
     209.367      758.972      1.0        1
     165.154      758.194      1.0        1
     120.865      757.415      1.0        1
      76.500      756.634      1.0        1
      32.060      755.853      1.0        1
     347.545      755.070      1.0        1
     302.954      754.286      1.0        1
     258.289      753.500      1.0        1
     213.549      752.714      1.0        1
     168.734      751.926      1.0        1
     123.845      751.137      1.0        1
      78.881      750.346      1.0        1
      33.843      749.555      1.0        1
     348.731      748.762      1.0        1
     303.546      747.968      1.0        1
     258.286      747.172      1.0        1
     212.954      746.376      1.0        1
     167.547      745.578      1.0        1
     122.068      744.779      1.0        1
      76.515      743.979      1.0        1
      30.890      743.178      1.0        1
     345.191      742.375      1.0        1
     299.420      741.572      1.0        1
     253.577      740.767      1.0        1
     207.661      739.961      1.0        1
     161.674      739.153      1.0        1
     115.614      738.345      1.0        1
      69.482      737.535      1.0        1
      23.279      736.724      1.0        1
     337.004      735.912      1.0        1
     290.658      735.099      1.0        1
     244.241      734.285      1.0        1
     197.753      733.469      1.0        1
     151.193      732.652      1.0        1
     104.563      731.835      1.0        1
      57.863      731.016      1.0        1
      11.092      730.196      1.0        1
     324.251      729.374      1.0        1
     277.340      728.552      1.0        1
     230.359      727.728      1.0        1
     183.308      726.904      1.0        1
     136.187      726.078      1.0        1
      88.997      725.251      1.0        1
      41.738      724.423      1.0        1
     354.409      723.594      1.0        1
     307.012      722.763      1.0        1
     259.546      721.932      1.0        1
     212.011      721.099      1.0        1
     164.407      720.266      1.0        1
     116.736      719.431      1.0        1
      68.996      718.595      1.0        1
      21.188      717.758      1.0        1
     333.312      716.920      1.0        1
     285.368      716.081      1.0        1
     237.357      715.241      1.0        1
     189.278      714.400      1.0        1
     141.132      713.557      1.0        1
      92.920      712.714      1.0        1
      44.640      711.870      1.0        1
     356.293      711.024      1.0        1
     307.880      710.178      1.0        1
     259.400      709.330      1.0        1
     210.854      708.481      1.0        1
     162.242      707.631      1.0        1
     113.564      706.781      1.0        1
      64.820      705.929      1.0        1
      16.011      705.076      1.0        1
     327.136      704.222      1.0        1
     278.195      703.367      1.0        1
     229.189      702.511      1.0        1
     180.119      701.654      1.0        1
     130.983      700.796      1.0        1
      81.783      699.937      1.0        1
      32.518      699.077      1.0        1
     343.189      698.216      1.0        1
     293.796      697.354      1.0        1
     244.338      696.491      1.0        1
     194.817      695.627      1.0        1
     145.232      694.762      1.0        1
      95.583      693.896      1.0        1
      45.871      693.029      1.0        1
     356.095      692.161      1.0        1
     306.257      691.292      1.0        1
     256.355      690.422      1.0        1
     206.391      689.551      1.0        1
     156.364      688.679      1.0        1
     106.274      687.807      1.0        1
      56.122      686.933      1.0        1
       5.908      686.058      1.0        1
     315.632      685.182      1.0        1
     265.294      684.306      1.0        1
     214.894      683.428      1.0        1
     164.433      682.550      1.0        1
     113.911      681.670      1.0        1
      63.327      680.790      1.0        1
      12.682      679.908      1.0        1
     321.976      679.026      1.0        1
     271.209      678.143      1.0        1
     220.382      677.259      1.0        1
     169.495      676.374      1.0        1
     118.547      675.488      1.0        1
      67.539      674.601      1.0        1
      16.471      673.714      1.0        1
     325.343      672.825      1.0        1
     274.155      671.936      1.0        1
     222.908      671.045      1.0        1
     171.602      670.154      1.0        1
     120.236      669.262      1.0        1
      68.812      668.369      1.0        1
      17.329      667.475      1.0        1
     325.786      666.580      1.0        1
     274.186      665.685      1.0        1
     222.527      664.788      1.0        1
     170.809      663.891      1.0        1
     119.034      662.993      1.0        1
      67.201      662.094      1.0        1
      15.309      661.194      1.0        1
     323.361      660.293      1.0        1
     271.355      659.391      1.0        1
     219.291      658.489      1.0        1
     167.171      657.586      1.0        1
     114.993      656.682      1.0        1
      62.758      655.777      1.0        1
      10.467      654.871      1.0        1
     318.120      653.965      1.0        1
     265.716      653.057      1.0        1
     213.255      652.149      1.0        1
     160.739      651.240      1.0        1
     108.167      650.331      1.0        1
      55.539      649.420      1.0        1
       2.856      648.509      1.0        1
     310.117      647.597      1.0        1
     257.323      646.684      1.0        1
     204.473      645.770      1.0        1
     151.569      644.856      1.0        1
      98.610      643.940      1.0        1
      45.596      643.025      1.0        1
     352.528      642.108      1.0        1
     299.406      641.190      1.0        1
     246.229      640.272      1.0        1
     192.998      639.353      1.0        1
     139.713      638.433      1.0        1
      86.375      637.513      1.0        1
      32.983      636.592      1.0        1
     339.538      635.670      1.0        1
     286.039      634.747      1.0        1
     232.487      633.824      1.0        1
     178.883      632.900      1.0        1
     125.225      631.975      1.0        1
      71.515      631.049      1.0        1
      17.753      630.123      1.0        1
     323.938      629.196      1.0        1
     270.071      628.268      1.0        1
     216.151      627.340      1.0        1
     162.180      626.411      1.0        1
     108.158      625.481      1.0        1
      54.083      624.551      1.0        1
     359.958      623.620      1.0        1
     305.781      622.688      1.0        1
     251.553      621.756      1.0        1
     197.274      620.822      1.0        1
     142.944      619.889      1.0        1
      88.563      618.954      1.0        1
      34.132      618.019      1.0        1
     339.651      617.083      1.0        1
     285.120      616.147      1.0        1
     230.538      615.210      1.0        1
     175.906      614.272      1.0        1
     121.225      613.334      1.0        1
      66.494      612.395      1.0        1
      11.714      611.455      1.0        1
     316.885      610.515      1.0        1
     262.006      609.574      1.0        1
     207.078      608.633      1.0        1
     152.102      607.691      1.0        1
      97.077      606.748      1.0        1
      42.003      605.805      1.0        1
     346.881      604.861      1.0        1
     291.711      603.917      1.0        1
     236.493      602.972      1.0        1
     181.226      602.026      1.0        1
     125.912      601.080      1.0        1
      70.551      600.133      1.0        1
      15.141      599.186      1.0        1
     319.685      598.238      1.0        1
     264.181      597.289      1.0        1
     208.631      596.340      1.0        1
     153.033      595.391      1.0        1
      97.389      594.441      1.0        1
      41.698      593.490      1.0        1
     345.960      592.539      1.0        1
     290.177      591.587      1.0        1
     234.347      590.635      1.0        1
     178.471      589.682      1.0        1
     122.550      588.728      1.0        1
      66.582      587.774      1.0        1
      10.569      586.820      1.0        1
     314.511      585.865      1.0        1
     258.408      584.910      1.0        1
     202.259      583.954      1.0        1
     146.066      582.997      1.0        1
      89.827      582.040      1.0        1
      33.544      581.083      1.0        1
     337.217      580.125      1.0        1
     280.845      579.166      1.0        1
     224.429      578.208      1.0        1
     167.968      577.248      1.0        1
     111.464      576.288      1.0        1
      54.916      575.328      1.0        1
     358.325      574.367      1.0        1
     301.690      573.406      1.0        1
     245.011      572.444      1.0        1
     188.290      571.482      1.0        1
     131.525      570.519      1.0        1
      74.717      569.556      1.0        1
      17.867      568.593      1.0        1
     320.974      567.629      1.0        1
     264.038      566.665      1.0        1
     207.061      565.700      1.0        1
     150.041      564.735      1.0        1
      92.978      563.769      1.0        1
      35.874      562.803      1.0        1
     338.729      561.837      1.0        1
     281.541      560.870      1.0        1
     224.312      559.903      1.0        1
     167.042      558.935      1.0        1
     109.731      557.967      1.0        1
      52.378      556.998      1.0        1
     354.985      556.030      1.0        1
     297.551      555.060      1.0        1
     240.076      554.091      1.0        1
     182.561      553.121      1.0        1
     125.005      552.151      1.0        1
      67.410      551.180      1.0        1
       9.774      550.209      1.0        1
     312.098      549.238      1.0        1
     254.383      548.266      1.0        1
     196.627      547.294      1.0        1
     138.833      546.321      1.0        1
      80.999      545.349      1.0        1
      23.125      544.376      1.0        1
     325.213      543.402      1.0        1
     267.262      542.428      1.0        1
     209.272      541.454      1.0        1
     151.243      540.480      1.0        1
      93.176      539.505      1.0        1
      35.070      538.530      1.0        1
     336.926      537.555      1.0        1
     278.744      536.579      1.0        1
     220.524      535.604      1.0        1
     162.266      534.627      1.0        1
     103.971      533.651      1.0        1
      45.638      532.674      1.0        1
     347.267      531.697      1.0        1
     288.860      530.720      1.0        1
     230.415      529.742      1.0        1
     171.933      528.764      1.0        1
     113.414      527.786      1.0        1
      54.858      526.808      1.0        1
     356.266      525.829      1.0        1
     297.638      524.851      1.0        1
     238.973      523.872      1.0        1
     180.272      522.892      1.0        1
     121.534      521.913      1.0        1
      62.761      520.933      1.0        1
       3.952      519.953      1.0        1
     305.108      518.973      1.0        1
     246.228      517.992      1.0        1
     187.312      517.011      1.0        1
     128.362      516.031      1.0        1
      69.376      515.050      1.0        1
      10.355      514.068      1.0        1
     311.299      513.087      1.0        1
     252.209      512.105      1.0        1
     193.084      511.123      1.0        1
     133.924      510.141      1.0        1
      74.730      509.159      1.0        1
      15.502      508.177      1.0        1
     316.240      507.194      1.0        1
     256.944      506.211      1.0        1
     197.615      505.229      1.0        1
     138.251      504.245      1.0        1
      78.854      503.262      1.0        1
      19.424      502.279      1.0        1
     319.960      501.295      1.0        1
     260.463      500.312      1.0        1
     200.933      499.328      1.0        1
     141.370      498.344      1.0        1
      81.775      497.360      1.0        1
      22.147      496.376      1.0        1
     322.486      495.392      1.0        1
     262.793      494.407      1.0        1
     203.068      493.423      1.0        1
     143.310      492.438      1.0        1
      83.521      491.454      1.0        1
      23.700      490.469      1.0        1
     323.847      489.484      1.0        1
     263.962      488.499      1.0        1
     204.046      487.514      1.0        1
     144.099      486.529      1.0        1
      84.120      485.544      1.0        1
      24.110      484.559      1.0        1
     324.069      483.573      1.0        1
     263.998      482.588      1.0        1
     203.895      481.602      1.0        1
     143.762      480.617      1.0        1
      83.599      479.631      1.0        1
      23.405      478.646      1.0        1
     323.181      477.660      1.0        1
     262.927      476.674      1.0        1
     202.643      475.689      1.0        1
     142.329      474.703      1.0        1
      81.986      473.717      1.0        1
      21.612      472.731      1.0        1
     321.210      471.746      1.0        1
     260.777      470.760      1.0        1
     200.316      469.774      1.0        1
     139.826      468.788      1.0        1
      79.306      467.803      1.0        1
      18.758      466.817      1.0        1
     318.181      465.831      1.0        1
     257.575      464.845      1.0        1
     196.941      463.859      1.0        1
     136.278      462.874      1.0        1
      75.587      461.888      1.0        1
      14.868      460.902      1.0        1
     314.121      459.917      1.0        1
     253.346      458.931      1.0        1
     192.543      457.946      1.0        1
     131.713      456.960      1.0        1
      70.854      455.975      1.0        1
       9.969      454.989      1.0        1
     309.056      454.004      1.0        1
     248.116      453.019      1.0        1
     187.149      452.034      1.0        1
     126.155      451.049      1.0        1
      65.134      450.064      1.0        1
       4.087      449.079      1.0        1
     303.012      448.094      1.0        1
     241.912      447.109      1.0        1
     180.784      446.125      1.0        1
     119.631      445.140      1.0        1
      58.451      444.156      1.0        1
     357.246      443.171      1.0        1
     296.014      442.187      1.0        1
     234.757      441.203      1.0        1
     173.474      440.219      1.0        1
     112.165      439.235      1.0        1
      50.831      438.252      1.0        1
     349.472      437.268      1.0        1
     288.087      436.285      1.0        1
     226.678      435.301      1.0        1
     165.243      434.318      1.0        1
     103.783      433.335      1.0        1
      42.299      432.353      1.0        1
     340.790      431.370      1.0        1
     279.256      430.387      1.0        1
     217.698      429.405      1.0        1
     156.115      428.423      1.0        1
      94.509      427.441      1.0        1
      32.878      426.459      1.0        1
     331.223      425.478      1.0        1
     269.544      424.496      1.0        1
     207.842      423.515      1.0        1
     146.115      422.534      1.0        1
      84.366      421.553      1.0        1
      22.592      420.573      1.0        1
     320.796      419.593      1.0        1
     258.976      418.612      1.0        1
     197.133      417.633      1.0        1
     135.267      416.653      1.0        1
      73.378      415.673      1.0        1
      11.466      414.694      1.0        1
     309.532      413.715      1.0        1
     247.575      412.737      1.0        1
     185.595      411.758      1.0        1
     123.594      410.780      1.0        1
      61.569      409.802      1.0        1
     359.523      408.824      1.0        1
     297.455      407.847      1.0        1
     235.364      406.870      1.0        1
     173.252      405.893      1.0        1
     111.118      404.916      1.0        1
      48.962      403.940      1.0        1
     346.785      402.964      1.0        1
     284.587      401.988      1.0        1
     222.367      401.013      1.0        1
     160.125      400.037      1.0        1
      97.863      399.063      1.0        1
      35.580      398.088      1.0        1
     333.275      397.114      1.0        1
     270.950      396.140      1.0        1
     208.604      395.166      1.0        1
     146.238      394.193      1.0        1
      83.851      393.220      1.0        1
      21.444      392.248      1.0        1
     319.016      391.275      1.0        1
     256.568      390.304      1.0        1
     194.100      389.332      1.0        1
     131.612      388.361      1.0        1
      69.104      387.390      1.0        1
       6.576      386.419      1.0        1
     304.029      385.449      1.0        1
     241.461      384.480      1.0        1
     178.875      383.510      1.0        1
     116.269      382.541      1.0        1
      53.643      381.573      1.0        1
     350.999      380.604      1.0        1
     288.335      379.637      1.0        1
     225.652      378.669      1.0        1
     162.950      377.702      1.0        1
     100.230      376.735      1.0        1
      37.490      375.769      1.0        1
     334.732      374.803      1.0        1
     271.956      373.838      1.0        1
     209.161      372.873      1.0        1
     146.347      371.908      1.0        1
      83.516      370.944      1.0        1
      20.666      369.981      1.0        1
     317.798      369.017      1.0        1
     254.912      368.054      1.0        1
     192.008      367.092      1.0        1
     129.087      366.130      1.0        1
      66.147      365.169      1.0        1
       3.190      364.208      1.0        1
     300.216      363.247      1.0        1
     237.224      362.287      1.0        1
     174.215      361.327      1.0        1
     111.188      360.368      1.0        1
      48.145      359.410      1.0        1
     345.084      358.451      1.0        1
     282.006      357.494      1.0        1
     218.912      356.537      1.0        1
     155.800      355.580      1.0        1
      92.672      354.624      1.0        1
      29.528      353.668      1.0        1
     326.366      352.713      1.0        1
     263.189      351.758      1.0        1
     199.995      350.804      1.0        1
     136.785      349.850      1.0        1
      73.558      348.897      1.0        1
      10.316      347.945      1.0        1
     307.057      346.992      1.0        1
     243.783      346.041      1.0        1
     180.492      345.090      1.0        1
     117.186      344.140      1.0        1
      53.865      343.190      1.0        1
     350.528      342.240      1.0        1
     287.175      341.292      1.0        1
     223.807      340.343      1.0        1
     160.423      339.396      1.0        1
      97.025      338.449      1.0        1
      33.611      337.502      1.0        1
     330.182      336.556      1.0        1
     266.738      335.611      1.0        1
     203.280      334.666      1.0        1
     139.806      333.722      1.0        1
      76.318      332.779      1.0        1
      12.815      331.836      1.0        1
     309.298      330.893      1.0        1
     245.766      329.952      1.0        1
     182.220      329.010      1.0        1
     118.659      328.070      1.0        1
      55.085      327.130      1.0        1
     351.496      326.191      1.0        1
     287.893      325.252      1.0        1
     224.276      324.314      1.0        1
     160.645      323.377      1.0        1
      97.000      322.440      1.0        1
      33.342      321.504      1.0        1
     329.669      320.569      1.0        1
     265.984      319.634      1.0        1
     202.284      318.700      1.0        1
     138.572      317.766      1.0        1
      74.846      316.833      1.0        1
      11.107      315.901      1.0        1
     307.354      314.970      1.0        1
     243.589      314.039      1.0        1
     179.810      313.109      1.0        1
     116.018      312.180      1.0        1
      52.214      311.251      1.0        1
     348.397      310.323      1.0        1
     284.567      309.396      1.0        1
     220.724      308.469      1.0        1
     156.869      307.543      1.0        1
      93.001      306.618      1.0        1
      29.121      305.694      1.0        1
     325.228      304.770      1.0        1
     261.323      303.847      1.0        1
     197.406      302.924      1.0        1
     133.477      302.003      1.0        1
      69.536      301.082      1.0        1
       5.583      300.162      1.0        1
     301.617      299.243      1.0        1
     237.640      298.324      1.0        1
     173.652      297.406      1.0        1
     109.651      296.489      1.0        1
      45.639      295.573      1.0        1
     341.615      294.657      1.0        1
     277.580      293.742      1.0        1
     213.534      292.828      1.0        1
     149.476      291.915      1.0        1
      85.407      291.003      1.0        1
      21.326      290.091      1.0        1
     317.235      289.180      1.0        1
     253.132      288.270      1.0        1
     189.018      287.361      1.0        1
     124.894      286.452      1.0        1
      60.759      285.544      1.0        1
     356.613      284.637      1.0        1
     292.456      283.731      1.0        1
     228.288      282.826      1.0        1
     164.110      281.922      1.0        1
      99.921      281.018      1.0        1
      35.722      280.115      1.0        1
     331.513      279.213      1.0        1
     267.293      278.312      1.0        1
     203.063      277.412      1.0        1
     138.823      276.512      1.0        1
      74.573      275.614      1.0        1
      10.312      274.716      1.0        1
     306.042      273.819      1.0        1
     241.762      272.923      1.0        1
     177.471      272.028      1.0        1
     113.172      271.133      1.0        1
      48.862      270.240      1.0        1
     344.543      269.347      1.0        1
     280.214      268.456      1.0        1
     215.875      267.565      1.0        1
     151.527      266.675      1.0        1
      87.170      265.786      1.0        1
      22.803      264.898      1.0        1
     318.427      264.010      1.0        1
     254.042      263.124      1.0        1
     189.647      262.239      1.0        1
     125.244      261.354      1.0        1
      60.831      260.471      1.0        1
     356.410      259.588      1.0        1
     291.979      258.706      1.0        1
     227.540      257.825      1.0        1
     163.092      256.945      1.0        1
      98.635      256.066      1.0        1
      34.170      255.188      1.0        1
     329.695      254.311      1.0        1
     265.213      253.435      1.0        1
     200.721      252.560      1.0        1
     136.222      251.685      1.0        1
      71.714      250.812      1.0        1
       7.197      249.940      1.0        1
     302.673      249.068      1.0        1
     238.140      248.198      1.0        1
     173.599      247.329      1.0        1
     109.050      246.460      1.0        1
      44.492      245.593      1.0        1
     339.927      244.726      1.0        1
     275.354      243.861      1.0        1
     210.773      242.996      1.0        1
     146.184      242.133      1.0        1
      81.588      241.270      1.0        1
      16.983      240.408      1.0        1
     312.371      239.548      1.0        1
     247.752      238.688      1.0        1
     183.125      237.830      1.0        1
     118.490      236.972      1.0        1
      53.848      236.116      1.0        1
     349.199      235.261      1.0        1
     284.542      234.406      1.0        1
     219.878      233.553      1.0        1
     155.206      232.700      1.0        1
      90.528      231.849      1.0        1
      25.842      230.999      1.0        1
     321.150      230.150      1.0        1
     256.450      229.301      1.0        1
     191.743      228.454      1.0        1
     127.030      227.608      1.0        1
      62.309      226.763      1.0        1
     357.582      225.919      1.0        1
     292.848      225.077      1.0        1
     228.108      224.235      1.0        1
     163.360      223.394      1.0        1
      98.606      222.554      1.0        1
      33.846      221.716      1.0        1
     329.078      220.878      1.0        1
     264.305      220.042      1.0        1
     199.525      219.207      1.0        1
     134.739      218.373      1.0        1
      69.946      217.540      1.0        1
       5.147      216.708      1.0        1
     300.342      215.877      1.0        1
     235.531      215.047      1.0        1
     170.713      214.218      1.0        1
     105.889      213.391      1.0        1
      41.060      212.564      1.0        1
     336.224      211.739      1.0        1
     271.383      210.915      1.0        1
     206.535      210.092      1.0        1
     141.682      209.270      1.0        1
      76.823      208.450      1.0        1
      11.958      207.630      1.0        1
     307.087      206.812      1.0        1
     242.211      205.994      1.0        1
     177.329      205.178      1.0        1
     112.442      204.363      1.0        1
      47.549      203.550      1.0        1
     342.650      202.737      1.0        1
     277.746      201.926      1.0        1
     212.837      201.115      1.0        1
     147.922      200.306      1.0        1
      83.002      199.498      1.0        1
      18.077      198.692      1.0        1
     313.146      197.886      1.0        1
     248.210      197.082      1.0        1
     183.269      196.279      1.0        1
     118.323      195.477      1.0        1
      53.372      194.676      1.0        1
     348.416      193.876      1.0        1
     283.455      193.078      1.0        1
     218.489      192.281      1.0        1
     153.518      191.485      1.0        1
      88.542      190.690      1.0        1
      23.561      189.897      1.0        1
     318.576      189.105      1.0        1
     253.585      188.314      1.0        1
     188.590      187.524      1.0        1
     123.591      186.736      1.0        1
      58.586      185.948      1.0        1
     353.578      185.162      1.0        1
     288.564      184.377      1.0        1
     223.546      183.594      1.0        1
     158.524      182.812      1.0        1
      93.497      182.031      1.0        1
      28.466      181.251      1.0        1
     323.430      180.472      1.0        1
     258.390      179.695      1.0        1
     193.346      178.919      1.0        1
     128.298      178.145      1.0        1
      63.245      177.371      1.0        1
     358.188      176.599      1.0        1
     293.127      175.828      1.0        1
     228.062      175.059      1.0        1
     162.993      174.290      1.0        1
      97.920      173.524      1.0        1
      32.842      172.758      1.0        1
     327.761      171.994      1.0        1
     262.676      171.231      1.0        1
     197.587      170.469      1.0        1
     132.494      169.708      1.0        1
      67.397      168.949      1.0        1
       2.297      168.192      1.0        1
     297.193      167.435      1.0        1
     232.085      166.680      1.0        1
     166.973      165.926      1.0        1
     101.858      165.174      1.0        1
      36.739      164.423      1.0        1
     331.616      163.673      1.0        1
     266.490      162.924      1.0        1
     201.360      162.177      1.0        1
     136.227      161.431      1.0        1
      71.090      160.687      1.0        1
       5.950      159.944      1.0        1
     300.807      159.202      1.0        1
     235.660      158.462      1.0        1
     170.510      157.723      1.0        1
     105.356      156.985      1.0        1
      40.199      156.249      1.0        1
     335.039      155.514      1.0        1
     269.876      154.781      1.0        1
     204.710      154.049      1.0        1
     139.540      153.318      1.0        1
      74.367      152.589      1.0        1
       9.192      151.861      1.0        1
     304.013      151.134      1.0        1
     238.831      150.409      1.0        1
     173.646      149.685      1.0        1
     108.458      148.963      1.0        1
      43.267      148.242      1.0        1
     338.073      147.523      1.0        1
     272.876      146.805      1.0        1
     207.677      146.088      1.0        1
     142.474      145.373      1.0        1
      77.269      144.659      1.0        1
      12.061      143.946      1.0        1
     306.850      143.235      1.0        1
     241.637      142.526      1.0        1
     176.421      141.818      1.0        1
     111.202      141.111      1.0        1
      45.980      140.406      1.0        1
     340.756      139.702      1.0        1
     275.529      139.000      1.0        1
     210.300      138.299      1.0        1
     145.068      137.599      1.0        1
      79.833      136.902      1.0        1
      14.597      136.205      1.0        1
     309.357      135.510      1.0        1
     244.115      134.816      1.0        1
     178.871      134.124      1.0        1
     113.624      133.434      1.0        1
      48.375      132.744      1.0        1
     343.124      132.057      1.0        1
     277.870      131.370      1.0        1
     212.614      130.686      1.0        1
     147.356      130.003      1.0        1
      82.095      129.321      1.0        1
      16.832      128.641      1.0        1
     311.567      127.962      1.0        1
     246.300      127.285      1.0        1
     181.031      126.609      1.0        1
     115.759      125.934      1.0        1
      50.486      125.262      1.0        1
     345.210      124.591      1.0        1
     279.932      123.921      1.0        1
     214.652      123.253      1.0        1
     149.371      122.586      1.0        1
      84.087      121.921      1.0        1
      18.801      121.257      1.0        1
     313.513      120.595      1.0        1
     248.223      119.934      1.0        1
     182.932      119.275      1.0        1
     117.638      118.618      1.0        1
      52.343      117.962      1.0        1
     347.045      117.308      1.0        1
     281.746      116.655      1.0        1
     216.445      116.003      1.0        1
     151.142      115.354      1.0        1
      85.838      114.705      1.0        1
      20.532      114.059      1.0        1
     315.223      113.414      1.0        1
     249.914      112.770      1.0        1
     184.602      112.128      1.0        1
     119.289      111.488      1.0        1
      53.974      110.849      1.0        1
     348.658      110.212      1.0        1
     283.340      109.576      1.0        1
     218.020      108.942      1.0        1
     152.699      108.309      1.0        1
      87.376      107.678      1.0        1
      22.052      107.049      1.0        1
     316.726      106.421      1.0        1
     251.398      105.795      1.0        1
     186.069      105.171      1.0        1
     120.739      104.548      1.0        1
      55.407      103.926      1.0        1
     350.074      103.306      1.0        1
     284.739      102.688      1.0        1
     219.403      102.072      1.0        1
     154.065      101.457      1.0        1
      88.726      100.844      1.0        1
      23.386      100.232      1.0        1
     318.044       99.622      1.0        1
     252.701       99.013      1.0        1
     187.357       98.407      1.0        1
     122.011       97.801      1.0        1
      56.664       97.198      1.0        1
     351.316       96.596      1.0        1
     285.967       95.996      1.0        1
     220.616       95.397      1.0        1
     155.264       94.800      1.0        1
      89.911       94.205      1.0        1
      24.557       93.611      1.0        1
     319.201       93.019      1.0        1
     253.845       92.428      1.0        1
     188.487       91.840      1.0        1
     123.128       91.252      1.0        1
      57.768       90.667      1.0        1
     352.407       90.083      1.0        1
     287.045       89.501      1.0        1
     221.682       88.921      1.0        1
     156.317       88.342      1.0        1
      90.952       87.765      1.0        1
      25.585       87.189      1.0        1
     320.218       86.616      1.0        1
     254.850       86.044      1.0        1
     189.480       85.473      1.0        1
     124.110       84.905      1.0        1
      58.738       84.338      1.0        1
     353.366       83.772      1.0        1
     287.993       83.209      1.0        1
     222.618       82.647      1.0        1
     157.243       82.086      1.0        1
      91.867       81.528      1.0        1
      26.490       80.971      1.0        1
     321.112       80.416      1.0        1
     255.734       79.863      1.0        1
     190.354       79.311      1.0        1
     124.974       78.761      1.0        1
      59.593       78.213      1.0        1
     354.210       77.666      1.0        1
     288.828       77.121      1.0        1
     223.444       76.578      1.0        1
     158.059       76.037      1.0        1
      92.674       75.497      1.0        1
      27.288       74.959      1.0        1
     321.901       74.423      1.0        1
     256.514       73.889      1.0        1
     191.126       73.356      1.0        1
     125.737       72.825      1.0        1
      60.347       72.296      1.0        1
     354.956       71.768      1.0        1
     289.565       71.242      1.0        1
     224.174       70.718      1.0        1
     158.781       70.196      1.0        1
      93.388       69.676      1.0        1
      27.994       69.157      1.0        1
     322.600       68.640      1.0        1
     257.205       68.125      1.0        1
     191.809       67.611      1.0        1
     126.413       67.099      1.0        1
      61.016       66.589      1.0        1
     355.618       66.081      1.0        1
     290.220       65.575      1.0        1
     224.821       65.070      1.0        1
     159.422       64.567      1.0        1
      94.022       64.066      1.0        1
      28.622       63.567      1.0        1
     323.221       63.070      1.0        1
     257.819       62.574      1.0        1
     192.417       62.080      1.0        1
     127.015       61.588      1.0        1
      61.612       61.097      1.0        1
     356.208       60.609      1.0        1
     290.804       60.122      1.0        1
     225.400       59.637      1.0        1
     159.994       59.154      1.0        1
      94.589       58.672      1.0        1
      29.183       58.193      1.0        1
     323.777       57.715      1.0        1
     258.370       57.239      1.0        1
     192.962       56.765      1.0        1
     127.555       56.293      1.0        1
      62.146       55.822      1.0        1
     356.738       55.353      1.0        1
     291.329       54.887      1.0        1
     225.919       54.421      1.0        1
     160.509       53.958      1.0        1
      95.099       53.497      1.0        1
      29.688       53.037      1.0        1
     324.277       52.579      1.0        1
     258.866       52.123      1.0        1
     193.454       51.669      1.0        1
     128.042       51.217      1.0        1
      62.630       50.767      1.0        1
     357.217       50.318      1.0        1
     291.803       49.871      1.0        1
     226.390       49.426      1.0        1
     160.976       48.983      1.0        1
      95.562       48.542      1.0        1
      30.147       48.103      1.0        1
     324.732       47.665      1.0        1
     259.317       47.229      1.0        1
     193.902       46.796      1.0        1
     128.486       46.364      1.0        1
      63.070       45.934      1.0        1
     357.654       45.505      1.0        1
     292.237       45.079      1.0        1
     226.820       44.654      1.0        1
     161.403       44.232      1.0        1
      95.985       43.811      1.0        1
      30.568       43.392      1.0        1
     325.150       42.975      1.0        1
     259.732       42.560      1.0        1
     194.313       42.146      1.0        1
     128.894       41.735      1.0        1
      63.475       41.325      1.0        1
     358.056       40.918      1.0        1
     292.637       40.512      1.0        1
     227.217       40.108      1.0        1
     161.797       39.706      1.0        1
      96.377       39.306      1.0        1
      30.957       38.908      1.0        1
     325.536       38.511      1.0        1
     260.116       38.117      1.0        1
     194.695       37.724      1.0        1
     129.274       37.333      1.0        1
      63.852       36.945      1.0        1
     358.431       36.558      1.0        1
     293.009       36.173      1.0        1
     227.587       35.790      1.0        1
     162.165       35.409      1.0        1
      96.743       35.029      1.0        1
      31.320       34.652      1.0        1
     325.898       34.276      1.0        1
     260.475       33.903      1.0        1
     195.052       33.531      1.0        1
     129.629       33.162      1.0        1
      64.206       32.794      1.0        1
     358.783       32.428      1.0        1
     293.359       32.064      1.0        1
     227.936       31.702      1.0        1
     162.512       31.342      1.0        1
      97.088       30.983      1.0        1
      31.664       30.627      1.0        1
     326.240       30.273      1.0        1
     260.815       29.920      1.0        1
     195.391       29.570      1.0        1
     129.966       29.221      1.0        1
      64.542       28.875      1.0        1
     359.117       28.530      1.0        1
     293.692       28.187      1.0        1
     228.267       27.846      1.0        1
     162.842       27.508      1.0        1
      97.417       27.171      1.0        1
      31.991       26.836      1.0        1
     326.566       26.503      1.0        1
     261.140       26.171      1.0        1
     195.715       25.842      1.0        1
     130.289       25.515      1.0        1
      64.863       25.190      1.0        1
     359.437       24.866      1.0        1
     294.011       24.545      1.0        1
     228.585       24.226      1.0        1
     163.159       23.908      1.0        1
      97.733       23.593      1.0        1
      32.306       23.279      1.0        1
     326.880       22.968      1.0        1
     261.453       22.658      1.0        1
     196.027       22.350      1.0        1
     130.600       22.044      1.0        1
      65.174       21.741      1.0        1
     359.747       21.439      1.0        1
     294.320       21.139      1.0        1
     228.893       20.841      1.0        1
     163.466       20.545      1.0        1
      98.039       20.252      1.0        1
      32.612       19.960      1.0        1
     327.185       19.670      1.0        1
     261.758       19.382      1.0        1
     196.330       19.096      1.0        1
     130.903       18.812      1.0        1
      65.476       18.530      1.0        1
       0.048       18.249      1.0        1
     294.621       17.971      1.0        1
     229.193       17.695      1.0        1
     163.766       17.421      1.0        1
      98.338       17.149      1.0        1
      32.911       16.879      1.0        1
     327.483       16.611      1.0        1
     262.055       16.345      1.0        1
     196.627       16.080      1.0        1
     131.200       15.818      1.0        1
      65.772       15.558      1.0        1
       0.344       15.300      1.0        1
     294.916       15.043      1.0        1
     229.488       14.789      1.0        1
     164.060       14.537      1.0        1
      98.632       14.287      1.0        1
      33.204       14.039      1.0        1
     327.776       13.792      1.0        1
     262.348       13.548      1.0        1
     196.920       13.306      1.0        1
     131.492       13.066      1.0        1
      66.064       12.827      1.0        1
       0.635       12.591      1.0        1
     295.207       12.357      1.0        1
     229.779       12.125      1.0        1
     164.351       11.894      1.0        1
      98.922       11.666      1.0        1
      33.494       11.440      1.0        1
     328.066       11.216      1.0        1
     262.637       10.994      1.0        1
     197.209       10.774      1.0        1
     131.781       10.555      1.0        1
      66.352       10.339      1.0        1
       0.924       10.125      1.0        1
     295.495        9.913      1.0        1
     230.067        9.703      1.0        1
     164.638        9.495      1.0        1
      99.210        9.289      1.0        1
      33.781        9.085      1.0        1
     328.353        8.883      1.0        1
     262.924        8.683      1.0        1
     197.496        8.485      1.0        1
     132.067        8.289      1.0        1
      66.639        8.095      1.0        1
       1.210        7.903      1.0        1
     295.782        7.713      1.0        1
     230.353        7.526      1.0        1
     164.924        7.340      1.0        1
      99.496        7.156      1.0        1
      34.067        6.974      1.0        1
     328.639        6.795      1.0        1
     263.210        6.617      1.0        1
     197.781        6.441      1.0        1
     132.353        6.268      1.0        1
      66.924        6.096      1.0        1
       1.495        5.927      1.0        1
     296.067        5.759      1.0        1
     230.638        5.594      1.0        1
     165.209        5.430      1.0        1
      99.781        5.269      1.0        1
      34.352        5.109      1.0        1
     328.923        4.952      1.0        1
     263.494        4.797      1.0        1
     198.066        4.644      1.0        1
     132.637        4.492      1.0        1
      67.208        4.343      1.0        1
       1.780        4.196      1.0        1
     296.351        4.051      1.0        1
     230.922        3.908      1.0        1
     165.493        3.767      1.0        1
     100.065        3.628      1.0        1
      34.636        3.491      1.0        1
     329.207        3.356      1.0        1
     263.779        3.223      1.0        1
     198.350        3.093      1.0        1
     132.921        2.964      1.0        1
      67.492        2.837      1.0        1
       2.064        2.713      1.0        1
     296.635        2.590      1.0        1
     231.206        2.470      1.0        1
     165.777        2.351      1.0        1
     100.349        2.235      1.0        1
      34.920        2.120      1.0        1
     329.491        2.008      1.0        1
     264.062        1.898      1.0        1
     198.634        1.790      1.0        1
     133.205        1.683      1.0        1
      67.776        1.579      1.0        1
       2.347        1.477      1.0        1
     296.918        1.377      1.0        1
     231.490        1.279      1.0        1
     166.061        1.183      1.0        1
     100.632        1.090      1.0        1
      35.203        0.998      1.0        1
     329.775        0.908      1.0        1
     264.346        0.820      1.0        1
     198.917        0.735      1.0        1
     133.488        0.651      1.0        1
      68.060        0.570      1.0        1
       2.631        0.490      1.0        1
     297.202        0.413      1.0        1
     231.773        0.338      1.0        1
     166.345        0.264      1.0        1
     100.916        0.193      1.0        1
      35.487        0.124      1.0        1
     330.058        0.057      1.0        1
     264.629        0.000      1.0        1
     199.201        0.000      1.0        1
     133.772        0.000      1.0        1
      68.343        0.000      1.0        1
       2.914        0.000      1.0        1
     297.486        0.000      1.0        1
     232.057        0.000      1.0        1
     166.628        0.000      1.0        1
     101.199        0.000      1.0        1
      35.771        0.000      1.0        1
     330.342        0.000      1.0        0
     264.913        0.000      1.0        0
     199.484        0.000      1.0        0
     134.055        0.000      1.0        0
      68.627        0.000      1.0        0
       3.198        0.000      1.0        0
     297.769        0.000      1.0        0
     232.340        0.000      1.0        0
     166.912        0.000      1.0        0
     101.483        0.000      1.0        0
      36.054        0.000      1.0        0
     330.625        0.000      1.0        0
     265.197        0.000      1.0        0
     199.768        0.000      1.0        0
     134.339        0.000      1.0        0
      68.910        0.000      1.0        0
       3.481        0.000      1.0        0
     298.053        0.000      1.0        0
     232.624        0.000      1.0        0
     167.195        0.000      1.0        0
     101.766        0.000      1.0        0
       0.000        0.000      1.0        0
