# Pbox  30000.00  33 4095  0.0     0    1.0000 1.39067     6
# VJ4.2  pw (us)  pwr  pwrf  dres  dmf  dcyc   B1max (kHz)  Stype
# ---------------------------------------------------------------
# Pxsim 0.0300000 1253.7551 0.000 166666.8 0.0000000 0.0000000 0.00
# data: pw (s) B1max (Hz) status sw (Hz) T1 (s)   T2 (s) RDC (Hz)
# ---------------------------------------------------------------
# Pbox.inp data :
# ~~~~~~~~~~~~~~~~~~~~~~~~~~~Waves~~~~~~~~~~~~~~~~~~~~~~~~~~~~~~~~~~
#   shape   bw(/pw)   ofs  st  ph  fla  trev  d1  d2   d0   wrp  php
# ~~~~~~~~~~~~~~~~~~~~~~~~~~~~~~~~~~~~~~~~~~~~~~~~~~~~~~~~~~~~~~~~~~
# { wurst2i 27777.8/0.0300000 }
#
# type      = r          mod       = n          dres      = n         
# steps     = n          stepsize  = 10.00      attn      = i         
# refofs    = n          wrap      = n          sfrq      = n         
# sucyc     = d          reps      = 2          header    = y         
# bscor     = n          pad1      = n          pad2      = n         
# bsim      = n          T1        = n          T2        = n         
# rdc       = n          dcyc      = n          sw        = n         
#
# RF Calibration Data :  ref_pwr   = 60         ref_pw90  = 8.03
# ~~~~~~~~~~~~~~~~~~~~~
###
# ------------------- Shape data ------------------
# pwtot      = 0.0300000 (total pw, s)
# power      = 33 (power level, dB)
# pwrf       = 4095 (fine power)
# B1max      = 1.3907 (B1max, kHz)
# B1rms      = 0.7676 (B1[RMS], kHz)
# nptot      = 3000 (total number of steps)
# stepsize   = 10.00 (length of a single step, us)
# maxamp     = 923.2 (max amplitude)
# ------------------------------------------------- 
#      phase      amplitude   length     gate 
# ------------------------------------------------- 
        0.00      1023.00      0.0        0
       0.000        0.000      1.0        0
     245.734        0.000      1.0        0
     295.750        0.000      1.0        0
     345.767        0.000      1.0        0
      35.784        0.000      1.0        0
      85.801        0.000      1.0        0
     135.817        0.000      1.0        0
     185.834        0.000      1.0        0
     235.851        0.000      1.0        0
     285.867        0.000      1.0        0
     335.884        0.000      1.0        0
      25.901        0.000      1.0        0
      75.918        0.000      1.0        0
     125.934        0.000      1.0        0
     175.951        0.000      1.0        0
     225.968        0.000      1.0        0
     275.984        0.000      1.0        0
     326.001        0.000      1.0        0
      16.018        0.000      1.0        0
      66.035        0.000      1.0        0
     116.051        0.000      1.0        0
     166.068        0.000      1.0        0
     216.085        0.000      1.0        0
     266.101        0.000      1.0        1
     316.118        0.000      1.0        1
       6.135        0.000      1.0        1
      56.152        0.000      1.0        1
     106.168        0.000      1.0        1
     156.185        0.000      1.0        1
     206.202        0.000      1.0        1
     256.218        0.000      1.0        1
     306.235        0.000      1.0        1
     356.252        0.037      1.0        1
      46.269        0.103      1.0        1
      96.285        0.171      1.0        1
     146.302        0.240      1.0        1
     196.319        0.312      1.0        1
     246.335        0.386      1.0        1
     296.352        0.462      1.0        1
     346.369        0.540      1.0        1
      36.386        0.620      1.0        1
      86.402        0.702      1.0        1
     136.419        0.786      1.0        1
     186.436        0.872      1.0        1
     236.452        0.960      1.0        1
     286.469        1.050      1.0        1
     336.486        1.142      1.0        1
      26.502        1.236      1.0        1
      76.519        1.332      1.0        1
     126.536        1.430      1.0        1
     176.553        1.530      1.0        1
     226.569        1.632      1.0        1
     276.586        1.737      1.0        1
     326.603        1.843      1.0        1
      16.619        1.951      1.0        1
      66.636        2.061      1.0        1
     116.653        2.173      1.0        1
     166.670        2.288      1.0        1
     216.686        2.404      1.0        1
     266.703        2.522      1.0        1
     316.720        2.642      1.0        1
       6.736        2.764      1.0        1
      56.753        2.889      1.0        1
     106.770        3.015      1.0        1
     156.786        3.143      1.0        1
     206.803        3.274      1.0        1
     256.820        3.406      1.0        1
     306.836        3.540      1.0        1
     356.853        3.676      1.0        1
      46.870        3.815      1.0        1
      96.886        3.955      1.0        1
     146.903        4.097      1.0        1
     196.920        4.242      1.0        1
     246.937        4.388      1.0        1
     296.953        4.536      1.0        1
     346.970        4.687      1.0        1
      36.987        4.839      1.0        1
      87.003        4.993      1.0        1
     137.020        5.150      1.0        1
     187.036        5.308      1.0        1
     237.053        5.468      1.0        1
     287.070        5.631      1.0        1
     337.086        5.795      1.0        1
      27.103        5.961      1.0        1
      77.120        6.130      1.0        1
     127.136        6.300      1.0        1
     177.153        6.472      1.0        1
     227.169        6.647      1.0        1
     277.186        6.823      1.0        1
     327.203        7.001      1.0        1
      17.219        7.182      1.0        1
      67.236        7.364      1.0        1
     117.252        7.548      1.0        1
     167.269        7.734      1.0        1
     217.286        7.923      1.0        1
     267.302        8.113      1.0        1
     317.319        8.305      1.0        1
       7.335        8.499      1.0        1
      57.352        8.695      1.0        1
     107.368        8.893      1.0        1
     157.385        9.094      1.0        1
     207.401        9.296      1.0        1
     257.418        9.500      1.0        1
     307.434        9.706      1.0        1
     357.451        9.914      1.0        1
      47.467       10.124      1.0        1
      97.484       10.336      1.0        1
     147.500       10.550      1.0        1
     197.516       10.766      1.0        1
     247.533       10.984      1.0        1
     297.549       11.204      1.0        1
     347.565       11.426      1.0        1
      37.582       11.650      1.0        1
      87.598       11.875      1.0        1
     137.614       12.103      1.0        1
     187.631       12.333      1.0        1
     237.647       12.565      1.0        1
     287.663       12.798      1.0        1
     337.680       13.034      1.0        1
      27.696       13.272      1.0        1
      77.712       13.511      1.0        1
     127.728       13.753      1.0        1
     177.744       13.996      1.0        1
     227.760       14.242      1.0        1
     277.776       14.489      1.0        1
     327.793       14.739      1.0        1
      17.809       14.990      1.0        1
      67.825       15.243      1.0        1
     117.841       15.499      1.0        1
     167.857       15.756      1.0        1
     217.873       16.015      1.0        1
     267.888       16.276      1.0        1
     317.904       16.539      1.0        1
       7.920       16.804      1.0        1
      57.936       17.071      1.0        1
     107.952       17.340      1.0        1
     157.967       17.611      1.0        1
     207.983       17.884      1.0        1
     257.999       18.159      1.0        1
     308.015       18.435      1.0        1
     358.030       18.714      1.0        1
      48.046       18.995      1.0        1
      98.061       19.277      1.0        1
     148.077       19.562      1.0        1
     198.092       19.848      1.0        1
     248.107       20.136      1.0        1
     298.123       20.427      1.0        1
     348.138       20.719      1.0        1
      38.153       21.013      1.0        1
      88.168       21.309      1.0        1
     138.184       21.607      1.0        1
     188.199       21.907      1.0        1
     238.214       22.209      1.0        1
     288.229       22.512      1.0        1
     338.244       22.818      1.0        1
      28.258       23.126      1.0        1
      78.273       23.435      1.0        1
     128.288       23.747      1.0        1
     178.303       24.060      1.0        1
     228.317       24.375      1.0        1
     278.332       24.692      1.0        1
     328.346       25.011      1.0        1
      18.361       25.332      1.0        1
      68.375       25.655      1.0        1
     118.389       25.980      1.0        1
     168.403       26.307      1.0        1
     218.417       26.636      1.0        1
     268.431       26.966      1.0        1
     318.445       27.299      1.0        1
       8.459       27.633      1.0        1
      58.473       27.969      1.0        1
     108.487       28.307      1.0        1
     158.500       28.647      1.0        1
     208.514       28.989      1.0        1
     258.527       29.333      1.0        1
     308.540       29.679      1.0        1
     358.554       30.027      1.0        1
      48.567       30.376      1.0        1
      98.580       30.728      1.0        1
     148.593       31.081      1.0        1
     198.605       31.436      1.0        1
     248.618       31.793      1.0        1
     298.631       32.152      1.0        1
     348.643       32.513      1.0        1
      38.655       32.876      1.0        1
      88.668       33.240      1.0        1
     138.680       33.607      1.0        1
     188.692       33.975      1.0        1
     238.703       34.345      1.0        1
     288.715       34.717      1.0        1
     338.727       35.091      1.0        1
      28.738       35.467      1.0        1
      78.750       35.845      1.0        1
     128.761       36.224      1.0        1
     178.772       36.606      1.0        1
     228.783       36.989      1.0        1
     278.793       37.374      1.0        1
     328.804       37.761      1.0        1
      18.814       38.150      1.0        1
      68.824       38.540      1.0        1
     118.835       38.933      1.0        1
     168.844       39.327      1.0        1
     218.854       39.724      1.0        1
     268.864       40.122      1.0        1
     318.873       40.522      1.0        1
       8.882       40.923      1.0        1
      58.891       41.327      1.0        1
     108.900       41.732      1.0        1
     158.909       42.140      1.0        1
     208.917       42.549      1.0        1
     258.926       42.960      1.0        1
     308.934       43.373      1.0        1
     358.942       43.787      1.0        1
      48.949       44.204      1.0        1
      98.957       44.622      1.0        1
     148.964       45.042      1.0        1
     198.971       45.464      1.0        1
     248.978       45.888      1.0        1
     298.984       46.314      1.0        1
     348.990       46.741      1.0        1
      38.997       47.170      1.0        1
      89.002       47.601      1.0        1
     139.008       48.034      1.0        1
     189.013       48.469      1.0        1
     239.018       48.905      1.0        1
     289.023       49.343      1.0        1
     339.028       49.784      1.0        1
      29.032       50.225      1.0        1
      79.036       50.669      1.0        1
     129.040       51.115      1.0        1
     179.043       51.562      1.0        1
     229.046       52.011      1.0        1
     279.049       52.462      1.0        1
     329.052       52.914      1.0        1
      19.054       53.369      1.0        1
      69.056       53.825      1.0        1
     119.058       54.283      1.0        1
     169.059       54.743      1.0        1
     219.060       55.205      1.0        1
     269.061       55.668      1.0        1
     319.061       56.133      1.0        1
       9.061       56.600      1.0        1
      59.061       57.069      1.0        1
     109.060       57.539      1.0        1
     159.059       58.011      1.0        1
     209.057       58.485      1.0        1
     259.056       58.961      1.0        1
     309.053       59.439      1.0        1
     359.051       59.918      1.0        1
      49.048       60.399      1.0        1
      99.045       60.882      1.0        1
     149.041       61.366      1.0        1
     199.037       61.853      1.0        1
     249.032       62.341      1.0        1
     299.027       62.831      1.0        1
     349.022       63.322      1.0        1
      39.016       63.816      1.0        1
      89.010       64.311      1.0        1
     139.003       64.807      1.0        1
     188.996       65.306      1.0        1
     238.988       65.806      1.0        1
     288.980       66.308      1.0        1
     338.971       66.812      1.0        1
      28.962       67.317      1.0        1
      78.953       67.824      1.0        1
     128.943       68.333      1.0        1
     178.932       68.844      1.0        1
     228.921       69.356      1.0        1
     278.910       69.870      1.0        1
     328.898       70.386      1.0        1
      18.885       70.904      1.0        1
      68.872       71.423      1.0        1
     118.858       71.944      1.0        1
     168.844       72.466      1.0        1
     218.829       72.991      1.0        1
     268.814       73.517      1.0        1
     318.798       74.044      1.0        1
       8.781       74.574      1.0        1
      58.764       75.105      1.0        1
     108.746       75.638      1.0        1
     158.728       76.172      1.0        1
     208.709       76.708      1.0        1
     258.689       77.246      1.0        1
     308.669       77.786      1.0        1
     358.648       78.327      1.0        1
      48.627       78.870      1.0        1
      98.604       79.414      1.0        1
     148.582       79.961      1.0        1
     198.558       80.509      1.0        1
     248.534       81.058      1.0        1
     298.509       81.609      1.0        1
     348.483       82.162      1.0        1
      38.457       82.717      1.0        1
      88.429       83.273      1.0        1
     138.402       83.831      1.0        1
     188.373       84.391      1.0        1
     238.344       84.952      1.0        1
     288.313       85.515      1.0        1
     338.282       86.079      1.0        1
      28.251       86.645      1.0        1
      78.218       87.213      1.0        1
     128.185       87.783      1.0        1
     178.151       88.354      1.0        1
     228.116       88.926      1.0        1
     278.080       89.501      1.0        1
     328.043       90.077      1.0        1
      18.005       90.654      1.0        1
      67.967       91.233      1.0        1
     117.928       91.814      1.0        1
     167.887       92.397      1.0        1
     217.846       92.981      1.0        1
     267.804       93.566      1.0        1
     317.761       94.154      1.0        1
       7.717       94.742      1.0        1
      57.672       95.333      1.0        1
     107.626       95.925      1.0        1
     157.580       96.519      1.0        1
     207.532       97.114      1.0        1
     257.483       97.711      1.0        1
     307.433       98.309      1.0        1
     357.382       98.909      1.0        1
      47.330       99.511      1.0        1
      97.277      100.114      1.0        1
     147.223      100.719      1.0        1
     197.168      101.326      1.0        1
     247.112      101.934      1.0        1
     297.054      102.543      1.0        1
     346.996      103.154      1.0        1
      36.936      103.767      1.0        1
      86.875      104.381      1.0        1
     136.814      104.997      1.0        1
     186.751      105.614      1.0        1
     236.686      106.233      1.0        1
     286.621      106.854      1.0        1
     336.554      107.476      1.0        1
      26.486      108.100      1.0        1
      76.417      108.725      1.0        1
     126.347      109.351      1.0        1
     176.275      109.980      1.0        1
     226.202      110.609      1.0        1
     276.128      111.241      1.0        1
     326.052      111.874      1.0        1
      15.975      112.508      1.0        1
      65.897      113.144      1.0        1
     115.817      113.781      1.0        1
     165.736      114.420      1.0        1
     215.654      115.061      1.0        1
     265.570      115.703      1.0        1
     315.485      116.346      1.0        1
       5.399      116.991      1.0        1
      55.310      117.638      1.0        1
     105.221      118.286      1.0        1
     155.130      118.935      1.0        1
     205.037      119.586      1.0        1
     254.943      120.239      1.0        1
     304.848      120.893      1.0        1
     354.750      121.548      1.0        1
      44.652      122.205      1.0        1
      94.551      122.864      1.0        1
     144.450      123.524      1.0        1
     194.346      124.185      1.0        1
     244.241      124.848      1.0        1
     294.134      125.513      1.0        1
     344.026      126.179      1.0        1
      33.915      126.846      1.0        1
      83.804      127.515      1.0        1
     133.690      128.185      1.0        1
     183.575      128.857      1.0        1
     233.458      129.530      1.0        1
     283.339      130.205      1.0        1
     333.218      130.881      1.0        1
      23.096      131.558      1.0        1
      72.971      132.237      1.0        1
     122.845      132.918      1.0        1
     172.717      133.599      1.0        1
     222.587      134.283      1.0        1
     272.455      134.967      1.0        1
     322.321      135.654      1.0        1
      12.186      136.341      1.0        1
      62.048      137.030      1.0        1
     111.908      137.721      1.0        1
     161.767      138.412      1.0        1
     211.623      139.106      1.0        1
     261.477      139.800      1.0        1
     311.329      140.496      1.0        1
       1.179      141.194      1.0        1
      51.027      141.893      1.0        1
     100.873      142.593      1.0        1
     150.717      143.295      1.0        1
     200.558      143.998      1.0        1
     250.398      144.702      1.0        1
     300.235      145.408      1.0        1
     350.070      146.115      1.0        1
      39.902      146.824      1.0        1
      89.733      147.534      1.0        1
     139.561      148.245      1.0        1
     189.386      148.958      1.0        1
     239.210      149.672      1.0        1
     289.031      150.388      1.0        1
     338.849      151.104      1.0        1
      28.665      151.823      1.0        1
      78.479      152.542      1.0        1
     128.290      153.263      1.0        1
     178.099      153.985      1.0        1
     227.906      154.709      1.0        1
     277.709      155.434      1.0        1
     327.510      156.160      1.0        1
      17.309      156.888      1.0        1
      67.105      157.617      1.0        1
     116.899      158.347      1.0        1
     166.689      159.078      1.0        1
     216.477      159.811      1.0        1
     266.263      160.546      1.0        1
     316.045      161.281      1.0        1
       5.825      162.018      1.0        1
      55.602      162.756      1.0        1
     105.377      163.496      1.0        1
     155.148      164.236      1.0        1
     204.917      164.978      1.0        1
     254.683      165.722      1.0        1
     304.446      166.467      1.0        1
     354.205      167.213      1.0        1
      43.962      167.960      1.0        1
      93.716      168.708      1.0        1
     143.468      169.458      1.0        1
     193.215      170.209      1.0        1
     242.960      170.962      1.0        1
     292.702      171.715      1.0        1
     342.441      172.470      1.0        1
      32.177      173.226      1.0        1
      81.909      173.984      1.0        1
     131.638      174.743      1.0        1
     181.364      175.502      1.0        1
     231.087      176.264      1.0        1
     280.806      177.026      1.0        1
     330.523      177.790      1.0        1
      20.235      178.555      1.0        1
      69.945      179.321      1.0        1
     119.651      180.088      1.0        1
     169.353      180.857      1.0        1
     219.053      181.627      1.0        1
     268.748      182.398      1.0        1
     318.441      183.170      1.0        1
       8.129      183.944      1.0        1
      57.814      184.719      1.0        1
     107.496      185.495      1.0        1
     157.174      186.272      1.0        1
     206.848      187.050      1.0        1
     256.518      187.830      1.0        1
     306.185      188.610      1.0        1
     355.848      189.392      1.0        1
      45.507      190.176      1.0        1
      95.163      190.960      1.0        1
     144.814      191.745      1.0        1
     194.462      192.532      1.0        1
     244.106      193.320      1.0        1
     293.746      194.109      1.0        1
     343.382      194.899      1.0        1
      33.014      195.691      1.0        1
      82.641      196.483      1.0        1
     132.265      197.277      1.0        1
     181.885      198.072      1.0        1
     231.500      198.868      1.0        1
     281.112      199.665      1.0        1
     330.719      200.463      1.0        1
      20.322      201.263      1.0        1
      69.921      202.063      1.0        1
     119.515      202.865      1.0        1
     169.105      203.668      1.0        1
     218.691      204.472      1.0        1
     268.272      205.277      1.0        1
     317.849      206.083      1.0        1
       7.421      206.891      1.0        1
      56.989      207.699      1.0        1
     106.552      208.509      1.0        1
     156.111      209.319      1.0        1
     205.665      210.131      1.0        1
     255.214      210.944      1.0        1
     304.759      211.758      1.0        1
     354.299      212.573      1.0        1
      43.834      213.389      1.0        1
      93.365      214.207      1.0        1
     142.890      215.025      1.0        1
     192.411      215.844      1.0        1
     241.927      216.665      1.0        1
     291.438      217.486      1.0        1
     340.944      218.309      1.0        1
      30.444      219.133      1.0        1
      79.940      219.957      1.0        1
     129.431      220.783      1.0        1
     178.917      221.610      1.0        1
     228.397      222.438      1.0        1
     277.872      223.267      1.0        1
     327.342      224.097      1.0        1
      16.807      224.928      1.0        1
      66.266      225.760      1.0        1
     115.720      226.593      1.0        1
     165.169      227.427      1.0        1
     214.612      228.262      1.0        1
     264.050      229.098      1.0        1
     313.482      229.936      1.0        1
       2.908      230.774      1.0        1
      52.329      231.613      1.0        1
     101.745      232.453      1.0        1
     151.154      233.294      1.0        1
     200.558      234.137      1.0        1
     249.956      234.980      1.0        1
     299.348      235.824      1.0        1
     348.735      236.669      1.0        1
      38.115      237.515      1.0        1
      87.490      238.362      1.0        1
     136.859      239.211      1.0        1
     186.221      240.060      1.0        1
     235.578      240.910      1.0        1
     284.928      241.761      1.0        1
     334.273      242.613      1.0        1
      23.611      243.466      1.0        1
      72.943      244.320      1.0        1
     122.268      245.174      1.0        1
     171.587      246.030      1.0        1
     220.900      246.887      1.0        1
     270.207      247.745      1.0        1
     319.507      248.603      1.0        1
       8.800      249.463      1.0        1
      58.087      250.323      1.0        1
     107.368      251.184      1.0        1
     156.641      252.047      1.0        1
     205.909      252.910      1.0        1
     255.169      253.774      1.0        1
     304.422      254.639      1.0        1
     353.669      255.505      1.0        1
      42.909      256.372      1.0        1
      92.142      257.240      1.0        1
     141.368      258.108      1.0        1
     190.587      258.978      1.0        1
     239.799      259.848      1.0        1
     289.004      260.719      1.0        1
     338.201      261.592      1.0        1
      27.392      262.465      1.0        1
      76.575      263.338      1.0        1
     125.751      264.213      1.0        1
     174.920      265.089      1.0        1
     224.081      265.965      1.0        1
     273.235      266.843      1.0        1
     322.381      267.721      1.0        1
      11.520      268.600      1.0        1
      60.651      269.480      1.0        1
     109.774      270.361      1.0        1
     158.890      271.242      1.0        1
     207.998      272.124      1.0        1
     257.099      273.008      1.0        1
     306.191      273.892      1.0        1
     355.276      274.777      1.0        1
      44.352      275.662      1.0        1
      93.421      276.549      1.0        1
     142.482      277.436      1.0        1
     191.534      278.324      1.0        1
     240.579      279.213      1.0        1
     289.615      280.103      1.0        1
     338.643      280.993      1.0        1
      27.663      281.884      1.0        1
      76.674      282.776      1.0        1
     125.677      283.669      1.0        1
     174.671      284.563      1.0        1
     223.657      285.457      1.0        1
     272.635      286.352      1.0        1
     321.603      287.248      1.0        1
      10.563      288.145      1.0        1
      59.515      289.042      1.0        1
     108.457      289.941      1.0        1
     157.391      290.840      1.0        1
     206.316      291.739      1.0        1
     255.232      292.640      1.0        1
     304.139      293.541      1.0        1
     353.037      294.443      1.0        1
      41.925      295.345      1.0        1
      90.805      296.249      1.0        1
     139.675      297.153      1.0        1
     188.537      298.058      1.0        1
     237.388      298.963      1.0        1
     286.231      299.869      1.0        1
     335.064      300.776      1.0        1
      23.887      301.684      1.0        1
      72.701      302.592      1.0        1
     121.505      303.501      1.0        1
     170.300      304.411      1.0        1
     219.084      305.321      1.0        1
     267.859      306.232      1.0        1
     316.625      307.144      1.0        1
       5.380      308.056      1.0        1
      54.125      308.969      1.0        1
     102.860      309.883      1.0        1
     151.586      310.798      1.0        1
     200.301      311.713      1.0        1
     249.005      312.628      1.0        1
     297.700      313.545      1.0        1
     346.384      314.462      1.0        1
      35.058      315.379      1.0        1
      83.722      316.298      1.0        1
     132.374      317.217      1.0        1
     181.017      318.136      1.0        1
     229.648      319.056      1.0        1
     278.269      319.977      1.0        1
     326.880      320.899      1.0        1
      15.479      321.821      1.0        1
      64.068      322.743      1.0        1
     112.645      323.667      1.0        1
     161.212      324.590      1.0        1
     209.768      325.515      1.0        1
     258.312      326.440      1.0        1
     306.845      327.366      1.0        1
     355.367      328.292      1.0        1
      43.878      329.219      1.0        1
      92.377      330.146      1.0        1
     140.865      331.074      1.0        1
     189.341      332.002      1.0        1
     237.806      332.931      1.0        1
     286.259      333.861      1.0        1
     334.701      334.791      1.0        1
      23.130      335.722      1.0        1
      71.548      336.653      1.0        1
     119.954      337.585      1.0        1
     168.348      338.518      1.0        1
     216.730      339.450      1.0        1
     265.100      340.384      1.0        1
     313.458      341.318      1.0        1
       1.803      342.252      1.0        1
      50.136      343.187      1.0        1
      98.457      344.123      1.0        1
     146.765      345.059      1.0        1
     195.061      345.996      1.0        1
     243.344      346.933      1.0        1
     291.615      347.870      1.0        1
     339.873      348.808      1.0        1
      28.118      349.747      1.0        1
      76.351      350.686      1.0        1
     124.570      351.625      1.0        1
     172.776      352.565      1.0        1
     220.970      353.506      1.0        1
     269.150      354.447      1.0        1
     317.317      355.388      1.0        1
       5.471      356.330      1.0        1
      53.612      357.272      1.0        1
     101.739      358.215      1.0        1
     149.852      359.158      1.0        1
     197.952      360.102      1.0        1
     246.039      361.046      1.0        1
     294.112      361.990      1.0        1
     342.171      362.935      1.0        1
      30.216      363.881      1.0        1
      78.248      364.827      1.0        1
     126.265      365.773      1.0        1
     174.268      366.720      1.0        1
     222.258      367.667      1.0        1
     270.233      368.614      1.0        1
     318.193      369.562      1.0        1
       6.140      370.510      1.0        1
      54.072      371.459      1.0        1
     101.989      372.408      1.0        1
     149.893      373.357      1.0        1
     197.781      374.307      1.0        1
     245.655      375.258      1.0        1
     293.514      376.208      1.0        1
     341.358      377.159      1.0        1
      29.187      378.110      1.0        1
      77.001      379.062      1.0        1
     124.800      380.014      1.0        1
     172.584      380.967      1.0        1
     220.353      381.919      1.0        1
     268.106      382.872      1.0        1
     315.844      383.826      1.0        1
       3.567      384.780      1.0        1
      51.274      385.734      1.0        1
      98.965      386.688      1.0        1
     146.641      387.643      1.0        1
     194.301      388.598      1.0        1
     241.945      389.553      1.0        1
     289.573      390.509      1.0        1
     337.185      391.465      1.0        1
      24.782      392.422      1.0        1
      72.362      393.378      1.0        1
     119.925      394.335      1.0        1
     167.473      395.292      1.0        1
     215.004      396.250      1.0        1
     262.518      397.208      1.0        1
     310.016      398.166      1.0        1
     357.498      399.124      1.0        1
      44.962      400.083      1.0        1
      92.410      401.041      1.0        1
     139.841      402.001      1.0        1
     187.255      402.960      1.0        1
     234.653      403.920      1.0        1
     282.032      404.879      1.0        1
     329.395      405.840      1.0        1
      16.741      406.800      1.0        1
      64.069      407.761      1.0        1
     111.380      408.721      1.0        1
     158.673      409.682      1.0        1
     205.948      410.644      1.0        1
     253.206      411.605      1.0        1
     300.446      412.567      1.0        1
     347.668      413.529      1.0        1
      34.873      414.491      1.0        1
      82.059      415.453      1.0        1
     129.227      416.416      1.0        1
     176.377      417.379      1.0        1
     223.509      418.342      1.0        1
     270.622      419.305      1.0        1
     317.717      420.268      1.0        1
       4.794      421.231      1.0        1
      51.852      422.195      1.0        1
      98.891      423.159      1.0        1
     145.911      424.123      1.0        1
     192.913      425.087      1.0        1
     239.895      426.051      1.0        1
     286.859      427.016      1.0        1
     333.803      427.980      1.0        1
      20.728      428.945      1.0        1
      67.634      429.910      1.0        1
     114.521      430.875      1.0        1
     161.388      431.840      1.0        1
     208.235      432.805      1.0        1
     255.063      433.771      1.0        1
     301.871      434.736      1.0        1
     348.660      435.702      1.0        1
      35.428      436.668      1.0        1
      82.177      437.633      1.0        1
     128.905      438.599      1.0        1
     175.613      439.565      1.0        1
     222.301      440.532      1.0        1
     268.969      441.498      1.0        1
     315.616      442.464      1.0        1
       2.242      443.430      1.0        1
      48.848      444.397      1.0        1
      95.434      445.363      1.0        1
     141.998      446.330      1.0        1
     188.542      447.297      1.0        1
     235.064      448.263      1.0        1
     281.566      449.230      1.0        1
     328.046      450.197      1.0        1
      14.506      451.164      1.0        1
      60.943      452.131      1.0        1
     107.360      453.098      1.0        1
     153.755      454.065      1.0        1
     200.128      455.032      1.0        1
     246.480      455.999      1.0        1
     292.809      456.966      1.0        1
     339.117      457.933      1.0        1
      25.403      458.900      1.0        1
      71.667      459.867      1.0        1
     117.909      460.834      1.0        1
     164.128      461.801      1.0        1
     210.325      462.768      1.0        1
     256.500      463.735      1.0        1
     302.652      464.702      1.0        1
     348.781      465.669      1.0        1
      34.888      466.636      1.0        1
      80.972      467.603      1.0        1
     127.033      468.570      1.0        1
     173.071      469.537      1.0        1
     219.085      470.504      1.0        1
     265.077      471.471      1.0        1
     311.045      472.437      1.0        1
     356.990      473.404      1.0        1
      42.912      474.371      1.0        1
      88.810      475.338      1.0        1
     134.684      476.304      1.0        1
     180.534      477.271      1.0        1
     226.361      478.237      1.0        1
     272.163      479.203      1.0        1
     317.942      480.170      1.0        1
       3.696      481.136      1.0        1
      49.426      482.102      1.0        1
      95.132      483.068      1.0        1
     140.813      484.034      1.0        1
     186.470      484.999      1.0        1
     232.102      485.965      1.0        1
     277.709      486.931      1.0        1
     323.292      487.896      1.0        1
       8.849      488.861      1.0        1
      54.382      489.827      1.0        1
      99.889      490.792      1.0        1
     145.371      491.757      1.0        1
     190.828      492.721      1.0        1
     236.259      493.686      1.0        1
     281.665      494.651      1.0        1
     327.045      495.615      1.0        1
      12.400      496.579      1.0        1
      57.728      497.543      1.0        1
     103.031      498.507      1.0        1
     148.307      499.471      1.0        1
     193.558      500.434      1.0        1
     238.782      501.398      1.0        1
     283.980      502.361      1.0        1
     329.151      503.324      1.0        1
      14.296      504.287      1.0        1
      59.414      505.249      1.0        1
     104.506      506.212      1.0        1
     149.570      507.174      1.0        1
     194.608      508.136      1.0        1
     239.619      509.098      1.0        1
     284.602      510.060      1.0        1
     329.558      511.021      1.0        1
      14.487      511.982      1.0        1
      59.388      512.943      1.0        1
     104.262      513.904      1.0        1
     149.108      514.864      1.0        1
     193.927      515.825      1.0        1
     238.717      516.785      1.0        1
     283.480      517.744      1.0        1
     328.214      518.704      1.0        1
      12.920      519.663      1.0        1
      57.598      520.622      1.0        1
     102.248      521.581      1.0        1
     146.869      522.539      1.0        1
     191.461      523.498      1.0        1
     236.025      524.456      1.0        1
     280.560      525.413      1.0        1
     325.066      526.370      1.0        1
       9.543      527.328      1.0        1
      53.991      528.284      1.0        1
      98.409      529.241      1.0        1
     142.798      530.197      1.0        1
     187.158      531.153      1.0        1
     231.488      532.108      1.0        1
     275.789      533.064      1.0        1
     320.060      534.019      1.0        1
       4.301      534.973      1.0        1
      48.512      535.927      1.0        1
      92.693      536.881      1.0        1
     136.843      537.835      1.0        1
     180.964      538.788      1.0        1
     225.054      539.741      1.0        1
     269.113      540.694      1.0        1
     313.142      541.646      1.0        1
     357.140      542.598      1.0        1
      41.107      543.549      1.0        1
      85.043      544.501      1.0        1
     128.949      545.451      1.0        1
     172.823      546.402      1.0        1
     216.666      547.352      1.0        1
     260.477      548.301      1.0        1
     304.257      549.251      1.0        1
     348.005      550.200      1.0        1
      31.722      551.148      1.0        1
      75.407      552.096      1.0        1
     119.059      553.044      1.0        1
     162.680      553.991      1.0        1
     206.269      554.938      1.0        1
     249.825      555.884      1.0        1
     293.350      556.830      1.0        1
     336.841      557.776      1.0        1
      20.300      558.721      1.0        1
      63.726      559.666      1.0        1
     107.120      560.610      1.0        1
     150.481      561.554      1.0        1
     193.808      562.498      1.0        1
     237.102      563.441      1.0        1
     280.364      564.383      1.0        1
     323.591      565.325      1.0        1
       6.786      566.267      1.0        1
      49.947      567.208      1.0        1
      93.074      568.149      1.0        1
     136.167      569.089      1.0        1
     179.226      570.029      1.0        1
     222.251      570.968      1.0        1
     265.243      571.907      1.0        1
     308.199      572.845      1.0        1
     351.122      573.783      1.0        1
      34.010      574.720      1.0        1
      76.864      575.657      1.0        1
     119.682      576.593      1.0        1
     162.466      577.529      1.0        1
     205.215      578.464      1.0        1
     247.929      579.399      1.0        1
     290.608      580.333      1.0        1
     333.251      581.267      1.0        1
      15.860      582.200      1.0        1
      58.432      583.133      1.0        1
     100.969      584.065      1.0        1
     143.471      584.997      1.0        1
     185.936      585.928      1.0        1
     228.366      586.858      1.0        1
     270.759      587.788      1.0        1
     313.116      588.717      1.0        1
     355.437      589.646      1.0        1
      37.722      590.574      1.0        1
      79.970      591.502      1.0        1
     122.181      592.429      1.0        1
     164.356      593.356      1.0        1
     206.494      594.281      1.0        1
     248.595      595.207      1.0        1
     290.658      596.132      1.0        1
     332.685      597.056      1.0        1
      14.674      597.979      1.0        1
      56.626      598.902      1.0        1
      98.540      599.825      1.0        1
     140.416      600.746      1.0        1
     182.255      601.667      1.0        1
     224.056      602.588      1.0        1
     265.819      603.508      1.0        1
     307.543      604.427      1.0        1
     349.230      605.346      1.0        1
      30.878      606.264      1.0        1
      72.487      607.181      1.0        1
     114.058      608.098      1.0        1
     155.590      609.014      1.0        1
     197.083      609.929      1.0        1
     238.538      610.844      1.0        1
     279.953      611.758      1.0        1
     321.329      612.671      1.0        1
       2.666      613.584      1.0        1
      43.964      614.496      1.0        1
      85.221      615.408      1.0        1
     126.440      616.318      1.0        1
     167.618      617.228      1.0        1
     208.757      618.138      1.0        1
     249.855      619.046      1.0        1
     290.914      619.954      1.0        1
     331.932      620.862      1.0        1
      12.910      621.768      1.0        1
      53.847      622.674      1.0        1
      94.744      623.579      1.0        1
     135.600      624.484      1.0        1
     176.415      625.387      1.0        1
     217.189      626.290      1.0        1
     257.922      627.192      1.0        1
     298.614      628.094      1.0        1
     339.265      628.995      1.0        1
      19.874      629.895      1.0        1
      60.442      630.794      1.0        1
     100.968      631.693      1.0        1
     141.453      632.591      1.0        1
     181.895      633.488      1.0        1
     222.295      634.384      1.0        1
     262.654      635.279      1.0        1
     302.970      636.174      1.0        1
     343.243      637.068      1.0        1
      23.474      637.961      1.0        1
      63.663      638.854      1.0        1
     103.809      639.745      1.0        1
     143.912      640.636      1.0        1
     183.972      641.526      1.0        1
     223.989      642.416      1.0        1
     263.962      643.304      1.0        1
     303.893      644.192      1.0        1
     343.780      645.079      1.0        1
      23.623      645.965      1.0        1
      63.423      646.850      1.0        1
     103.179      647.735      1.0        1
     142.890      648.618      1.0        1
     182.558      649.501      1.0        1
     222.182      650.383      1.0        1
     261.762      651.264      1.0        1
     301.297      652.144      1.0        1
     340.787      653.024      1.0        1
      20.233      653.902      1.0        1
      59.634      654.780      1.0        1
      98.990      655.657      1.0        1
     138.302      656.533      1.0        1
     177.568      657.408      1.0        1
     216.789      658.283      1.0        1
     255.964      659.156      1.0        1
     295.094      660.029      1.0        1
     334.179      660.900      1.0        1
      13.217      661.771      1.0        1
      52.210      662.641      1.0        1
      91.157      663.510      1.0        1
     130.058      664.379      1.0        1
     168.913      665.246      1.0        1
     207.721      666.112      1.0        1
     246.483      666.978      1.0        1
     285.198      667.842      1.0        1
     323.867      668.706      1.0        1
       2.488      669.569      1.0        1
      41.063      670.430      1.0        1
      79.591      671.291      1.0        1
     118.072      672.151      1.0        1
     156.505      673.010      1.0        1
     194.891      673.869      1.0        1
     233.229      674.726      1.0        1
     271.520      675.582      1.0        1
     309.763      676.437      1.0        1
     347.958      677.292      1.0        1
      26.105      678.145      1.0        1
      64.204      678.998      1.0        1
     102.254      679.849      1.0        1
     140.257      680.700      1.0        1
     178.210      681.549      1.0        1
     216.116      682.398      1.0        1
     253.972      683.245      1.0        1
     291.780      684.092      1.0        1
     329.538      684.938      1.0        1
       7.247      685.782      1.0        1
      44.908      686.626      1.0        1
      82.519      687.469      1.0        1
     120.080      688.310      1.0        1
     157.592      689.151      1.0        1
     195.054      689.991      1.0        1
     232.466      690.830      1.0        1
     269.828      691.667      1.0        1
     307.141      692.504      1.0        1
     344.403      693.340      1.0        1
      21.614      694.174      1.0        1
      58.776      695.008      1.0        1
      95.886      695.840      1.0        1
     132.947      696.672      1.0        1
     169.956      697.502      1.0        1
     206.914      698.332      1.0        1
     243.821      699.160      1.0        1
     280.678      699.988      1.0        1
     317.482      700.814      1.0        1
     354.236      701.639      1.0        1
      30.938      702.463      1.0        1
      67.588      703.287      1.0        1
     104.187      704.109      1.0        1
     140.733      704.930      1.0        1
     177.228      705.750      1.0        1
     213.670      706.569      1.0        1
     250.060      707.386      1.0        1
     286.398      708.203      1.0        1
     322.684      709.019      1.0        1
     358.916      709.833      1.0        1
      35.096      710.647      1.0        1
      71.224      711.459      1.0        1
     107.298      712.270      1.0        1
     143.319      713.080      1.0        1
     179.287      713.889      1.0        1
     215.201      714.697      1.0        1
     251.062      715.504      1.0        1
     286.870      716.310      1.0        1
     322.624      717.114      1.0        1
     358.323      717.918      1.0        1
      33.969      718.720      1.0        1
      69.561      719.521      1.0        1
     105.099      720.321      1.0        1
     140.583      721.120      1.0        1
     176.012      721.918      1.0        1
     211.386      722.714      1.0        1
     246.706      723.510      1.0        1
     281.971      724.304      1.0        1
     317.181      725.097      1.0        1
     352.336      725.889      1.0        1
      27.436      726.680      1.0        1
      62.481      727.470      1.0        1
      97.471      728.258      1.0        1
     132.404      729.045      1.0        1
     167.283      729.832      1.0        1
     202.105      730.617      1.0        1
     236.872      731.400      1.0        1
     271.582      732.183      1.0        1
     306.237      732.964      1.0        1
     340.835      733.744      1.0        1
      15.377      734.523      1.0        1
      49.863      735.301      1.0        1
      84.292      736.078      1.0        1
     118.664      736.853      1.0        1
     152.979      737.627      1.0        1
     187.238      738.400      1.0        1
     221.439      739.172      1.0        1
     255.583      739.942      1.0        1
     289.670      740.712      1.0        1
     323.700      741.480      1.0        1
     357.672      742.246      1.0        1
      31.586      743.012      1.0        1
      65.443      743.776      1.0        1
      99.241      744.539      1.0        1
     132.982      745.301      1.0        1
     166.664      746.062      1.0        1
     200.289      746.821      1.0        1
     233.855      747.579      1.0        1
     267.362      748.336      1.0        1
     300.811      749.092      1.0        1
     334.201      749.846      1.0        1
       7.532      750.599      1.0        1
      40.804      751.351      1.0        1
      74.018      752.101      1.0        1
     107.172      752.850      1.0        1
     140.266      753.598      1.0        1
     173.302      754.345      1.0        1
     206.277      755.090      1.0        1
     239.194      755.834      1.0        1
     272.050      756.577      1.0        1
     304.846      757.318      1.0        1
     337.583      758.058      1.0        1
      10.259      758.797      1.0        1
      42.875      759.535      1.0        1
      75.431      760.271      1.0        1
     107.926      761.006      1.0        1
     140.360      761.739      1.0        1
     172.734      762.472      1.0        1
     205.047      763.203      1.0        1
     237.299      763.932      1.0        1
     269.490      764.661      1.0        1
     301.620      765.387      1.0        1
     333.689      766.113      1.0        1
       5.696      766.837      1.0        1
      37.641      767.560      1.0        1
      69.525      768.282      1.0        1
     101.347      769.002      1.0        1
     133.108      769.721      1.0        1
     164.806      770.438      1.0        1
     196.442      771.155      1.0        1
     228.016      771.869      1.0        1
     259.528      772.583      1.0        1
     290.977      773.295      1.0        1
     322.363      774.005      1.0        1
     353.687      774.715      1.0        1
      24.948      775.423      1.0        1
      56.146      776.129      1.0        1
      87.282      776.834      1.0        1
     118.354      777.538      1.0        1
     149.362      778.240      1.0        1
     180.308      778.941      1.0        1
     211.189      779.641      1.0        1
     242.008      780.339      1.0        1
     272.762      781.036      1.0        1
     303.453      781.731      1.0        1
     334.080      782.425      1.0        1
       4.643      783.118      1.0        1
      35.141      783.809      1.0        1
      65.575      784.499      1.0        1
      95.945      785.187      1.0        1
     126.251      785.874      1.0        1
     156.491      786.559      1.0        1
     186.668      787.243      1.0        1
     216.779      787.926      1.0        1
     246.825      788.607      1.0        1
     276.806      789.287      1.0        1
     306.722      789.965      1.0        1
     336.573      790.642      1.0        1
       6.358      791.317      1.0        1
      36.078      791.991      1.0        1
      65.732      792.663      1.0        1
      95.320      793.334      1.0        1
     124.843      794.004      1.0        1
     154.299      794.672      1.0        1
     183.690      795.339      1.0        1
     213.014      796.004      1.0        1
     242.272      796.667      1.0        1
     271.464      797.330      1.0        1
     300.589      797.990      1.0        1
     329.647      798.650      1.0        1
     358.639      799.307      1.0        1
      27.564      799.964      1.0        1
      56.422      800.618      1.0        1
      85.213      801.272      1.0        1
     113.936      801.923      1.0        1
     142.593      802.574      1.0        1
     171.182      803.222      1.0        1
     199.703      803.870      1.0        1
     228.157      804.516      1.0        1
     256.544      805.160      1.0        1
     284.862      805.803      1.0        1
     313.112      806.444      1.0        1
     341.295      807.084      1.0        1
       9.409      807.722      1.0        1
      37.455      808.358      1.0        1
      65.432      808.994      1.0        1
      93.342      809.627      1.0        1
     121.182      810.259      1.0        1
     148.954      810.890      1.0        1
     176.657      811.519      1.0        1
     204.291      812.146      1.0        1
     231.856      812.772      1.0        1
     259.352      813.397      1.0        1
     286.779      814.019      1.0        1
     314.137      814.641      1.0        1
     341.425      815.260      1.0        1
       8.643      815.879      1.0        1
      35.792      816.495      1.0        1
      62.871      817.110      1.0        1
      89.881      817.724      1.0        1
     116.820      818.336      1.0        1
     143.689      818.946      1.0        1
     170.488      819.555      1.0        1
     197.217      820.162      1.0        1
     223.876      820.768      1.0        1
     250.464      821.372      1.0        1
     276.981      821.974      1.0        1
     303.428      822.575      1.0        1
     329.804      823.174      1.0        1
     356.109      823.772      1.0        1
      22.343      824.368      1.0        1
      48.506      824.962      1.0        1
      74.597      825.555      1.0        1
     100.618      826.147      1.0        1
     126.567      826.736      1.0        1
     152.444      827.324      1.0        1
     178.250      827.911      1.0        1
     203.984      828.496      1.0        1
     229.647      829.079      1.0        1
     255.237      829.661      1.0        1
     280.756      830.241      1.0        1
     306.202      830.819      1.0        1
     331.576      831.396      1.0        1
     356.878      831.971      1.0        1
      22.108      832.544      1.0        1
      47.264      833.116      1.0        1
      72.349      833.687      1.0        1
      97.360      834.255      1.0        1
     122.299      834.822      1.0        1
     147.165      835.387      1.0        1
     171.958      835.951      1.0        1
     196.677      836.513      1.0        1
     221.324      837.073      1.0        1
     245.897      837.632      1.0        1
     270.397      838.189      1.0        1
     294.823      838.745      1.0        1
     319.176      839.298      1.0        1
     343.455      839.851      1.0        1
       7.660      840.401      1.0        1
      31.792      840.950      1.0        1
      55.849      841.497      1.0        1
      79.832      842.042      1.0        1
     103.742      842.586      1.0        1
     127.576      843.128      1.0        1
     151.337      843.668      1.0        1
     175.023      844.207      1.0        1
     198.634      844.744      1.0        1
     222.171      845.279      1.0        1
     245.633      845.813      1.0        1
     269.020      846.345      1.0        1
     292.333      846.875      1.0        1
     315.570      847.404      1.0        1
     338.732      847.931      1.0        1
       1.819      848.456      1.0        1
      24.831      848.979      1.0        1
      47.767      849.501      1.0        1
      70.628      850.021      1.0        1
      93.413      850.539      1.0        1
     116.122      851.056      1.0        1
     138.756      851.571      1.0        1
     161.314      852.084      1.0        1
     183.796      852.596      1.0        1
     206.202      853.105      1.0        1
     228.531      853.613      1.0        1
     250.785      854.120      1.0        1
     272.962      854.624      1.0        1
     295.063      855.127      1.0        1
     317.087      855.628      1.0        1
     339.035      856.128      1.0        1
       0.906      856.625      1.0        1
      22.700      857.121      1.0        1
      44.417      857.615      1.0        1
      66.058      858.108      1.0        1
      87.621      858.599      1.0        1
     109.107      859.088      1.0        1
     130.516      859.575      1.0        1
     151.848      860.060      1.0        1
     173.103      860.544      1.0        1
     194.280      861.026      1.0        1
     215.379      861.506      1.0        1
     236.401      861.984      1.0        1
     257.345      862.461      1.0        1
     278.211      862.936      1.0        1
     298.999      863.409      1.0        1
     319.710      863.880      1.0        1
     340.342      864.350      1.0        1
       0.896      864.818      1.0        1
      21.372      865.284      1.0        1
      41.769      865.748      1.0        1
      62.089      866.211      1.0        1
      82.329      866.671      1.0        1
     102.491      867.130      1.0        1
     122.575      867.587      1.0        1
     142.579      868.043      1.0        1
     162.505      868.496      1.0        1
     182.352      868.948      1.0        1
     202.120      869.398      1.0        1
     221.809      869.846      1.0        1
     241.419      870.293      1.0        1
     260.950      870.737      1.0        1
     280.401      871.180      1.0        1
     299.773      871.621      1.0        1
     319.065      872.060      1.0        1
     338.278      872.497      1.0        1
     357.411      872.933      1.0        1
      16.464      873.367      1.0        1
      35.438      873.799      1.0        1
      54.332      874.229      1.0        1
      73.146      874.657      1.0        1
      91.880      875.084      1.0        1
     110.533      875.508      1.0        1
     129.107      875.931      1.0        1
     147.600      876.352      1.0        1
     166.013      876.771      1.0        1
     184.346      877.189      1.0        1
     202.598      877.604      1.0        1
     220.769      878.018      1.0        1
     238.860      878.430      1.0        1
     256.870      878.840      1.0        1
     274.800      879.248      1.0        1
     292.648      879.655      1.0        1
     310.416      880.059      1.0        1
     328.102      880.462      1.0        1
     345.708      880.863      1.0        1
       3.232      881.262      1.0        1
      20.675      881.659      1.0        1
      38.037      882.054      1.0        1
      55.317      882.448      1.0        1
      72.516      882.839      1.0        1
      89.633      883.229      1.0        1
     106.669      883.617      1.0        1
     123.623      884.003      1.0        1
     140.495      884.387      1.0        1
     157.286      884.770      1.0        1
     173.995      885.150      1.0        1
     190.621      885.529      1.0        1
     207.166      885.905      1.0        1
     223.628      886.280      1.0        1
     240.009      886.653      1.0        1
     256.307      887.024      1.0        1
     272.523      887.394      1.0        1
     288.656      887.761      1.0        1
     304.707      888.127      1.0        1
     320.676      888.490      1.0        1
     336.562      888.852      1.0        1
     352.365      889.212      1.0        1
       8.086      889.570      1.0        1
      23.724      889.926      1.0        1
      39.279      890.280      1.0        1
      54.751      890.633      1.0        1
      70.140      890.983      1.0        1
      85.446      891.332      1.0        1
     100.669      891.678      1.0        1
     115.809      892.023      1.0        1
     130.865      892.366      1.0        1
     145.839      892.707      1.0        1
     160.729      893.046      1.0        1
     175.535      893.383      1.0        1
     190.258      893.719      1.0        1
     204.898      894.052      1.0        1
     219.454      894.383      1.0        1
     233.926      894.713      1.0        1
     248.314      895.041      1.0        1
     262.619      895.367      1.0        1
     276.840      895.690      1.0        1
     290.977      896.012      1.0        1
     305.030      896.332      1.0        1
     318.999      896.651      1.0        1
     332.883      896.967      1.0        1
     346.684      897.281      1.0        1
       0.400      897.594      1.0        1
      14.033      897.904      1.0        1
      27.580      898.213      1.0        1
      41.044      898.519      1.0        1
      54.423      898.824      1.0        1
      67.717      899.127      1.0        1
      80.927      899.428      1.0        1
      94.053      899.727      1.0        1
     107.093      900.024      1.0        1
     120.049      900.319      1.0        1
     132.920      900.612      1.0        1
     145.706      900.903      1.0        1
     158.408      901.192      1.0        1
     171.024      901.480      1.0        1
     183.556      901.765      1.0        1
     196.002      902.049      1.0        1
     208.363      902.330      1.0        1
     220.639      902.610      1.0        1
     232.830      902.887      1.0        1
     244.936      903.163      1.0        1
     256.956      903.437      1.0        1
     268.891      903.709      1.0        1
     280.741      903.979      1.0        1
     292.505      904.247      1.0        1
     304.183      904.513      1.0        1
     315.776      904.777      1.0        1
     327.283      905.039      1.0        1
     338.705      905.299      1.0        1
     350.041      905.557      1.0        1
       1.291      905.813      1.0        1
      12.455      906.068      1.0        1
      23.534      906.320      1.0        1
      34.526      906.570      1.0        1
      45.433      906.819      1.0        1
      56.253      907.065      1.0        1
      66.988      907.310      1.0        1
      77.636      907.552      1.0        1
      88.199      907.793      1.0        1
      98.675      908.031      1.0        1
     109.064      908.268      1.0        1
     119.368      908.503      1.0        1
     129.585      908.735      1.0        1
     139.716      908.966      1.0        1
     149.760      909.195      1.0        1
     159.718      909.422      1.0        1
     169.590      909.647      1.0        1
     179.374      909.870      1.0        1
     189.073      910.090      1.0        1
     198.684      910.309      1.0        1
     208.209      910.526      1.0        1
     217.648      910.741      1.0        1
     226.999      910.954      1.0        1
     236.264      911.165      1.0        1
     245.442      911.374      1.0        1
     254.533      911.582      1.0        1
     263.537      911.787      1.0        1
     272.454      911.990      1.0        1
     281.284      912.191      1.0        1
     290.027      912.390      1.0        1
     298.683      912.587      1.0        1
     307.252      912.782      1.0        1
     315.734      912.976      1.0        1
     324.128      913.167      1.0        1
     332.435      913.356      1.0        1
     340.656      913.543      1.0        1
     348.788      913.728      1.0        1
     356.834      913.912      1.0        1
       4.792      914.093      1.0        1
      12.663      914.272      1.0        1
      20.446      914.450      1.0        1
      28.142      914.625      1.0        1
      35.750      914.798      1.0        1
      43.271      914.970      1.0        1
      50.704      915.139      1.0        1
      58.050      915.306      1.0        1
      65.308      915.471      1.0        1
      72.478      915.635      1.0        1
      79.561      915.796      1.0        1
      86.556      915.955      1.0        1
      93.463      916.113      1.0        1
     100.282      916.268      1.0        1
     107.014      916.421      1.0        1
     113.658      916.573      1.0        1
     120.213      916.722      1.0        1
     126.681      916.869      1.0        1
     133.062      917.015      1.0        1
     139.354      917.158      1.0        1
     145.558      917.299      1.0        1
     151.674      917.439      1.0        1
     157.702      917.576      1.0        1
     163.642      917.711      1.0        1
     169.494      917.845      1.0        1
     175.258      917.976      1.0        1
     180.933      918.105      1.0        1
     186.521      918.233      1.0        1
     192.020      918.358      1.0        1
     197.431      918.481      1.0        1
     202.754      918.602      1.0        1
     207.989      918.722      1.0        1
     213.135      918.839      1.0        1
     218.193      918.954      1.0        1
     223.163      919.067      1.0        1
     228.044      919.178      1.0        1
     232.837      919.288      1.0        1
     237.542      919.395      1.0        1
     242.158      919.500      1.0        1
     246.686      919.603      1.0        1
     251.125      919.704      1.0        1
     255.476      919.803      1.0        1
     259.738      919.900      1.0        1
     263.912      919.995      1.0        1
     267.997      920.088      1.0        1
     271.994      920.179      1.0        1
     275.902      920.269      1.0        1
     279.722      920.356      1.0        1
     283.453      920.440      1.0        1
     287.095      920.523      1.0        1
     290.649      920.604      1.0        1
     294.114      920.683      1.0        1
     297.490      920.760      1.0        1
     300.778      920.835      1.0        1
     303.977      920.908      1.0        1
     307.088      920.979      1.0        1
     310.109      921.048      1.0        1
     313.042      921.115      1.0        1
     315.887      921.179      1.0        1
     318.642      921.242      1.0        1
     321.309      921.303      1.0        1
     323.887      921.362      1.0        1
     326.376      921.418      1.0        1
     328.776      921.473      1.0        1
     331.088      921.526      1.0        1
     333.310      921.576      1.0        1
     335.444      921.625      1.0        1
     337.489      921.671      1.0        1
     339.445      921.716      1.0        1
     341.313      921.758      1.0        1
     343.091      921.799      1.0        1
     344.781      921.837      1.0        1
     346.381      921.874      1.0        1
     347.893      921.908      1.0        1
     349.316      921.941      1.0        1
     350.650      921.971      1.0        1
     351.895      922.000      1.0        1
     353.051      922.026      1.0        1
     354.119      922.050      1.0        1
     355.097      922.072      1.0        1
     355.986      922.093      1.0        1
     356.787      922.111      1.0        1
     357.498      922.127      1.0        1
     358.121      922.141      1.0        1
     358.655      922.153      1.0        1
     359.099      922.164      1.0        1
     359.455      922.172      1.0        1
     359.722      922.178      1.0        1
     359.900      922.182      1.0        1
     359.989      922.184      2.0        1
     359.900      922.182      1.0        1
     359.722      922.178      1.0        1
     359.455      922.172      1.0        1
     359.099      922.164      1.0        1
     358.655      922.153      1.0        1
     358.121      922.141      1.0        1
     357.498      922.127      1.0        1
     356.787      922.111      1.0        1
     355.986      922.093      1.0        1
     355.097      922.072      1.0        1
     354.119      922.050      1.0        1
     353.051      922.026      1.0        1
     351.895      922.000      1.0        1
     350.650      921.971      1.0        1
     349.316      921.941      1.0        1
     347.893      921.908      1.0        1
     346.381      921.874      1.0        1
     344.781      921.837      1.0        1
     343.091      921.799      1.0        1
     341.313      921.758      1.0        1
     339.445      921.716      1.0        1
     337.489      921.671      1.0        1
     335.444      921.625      1.0        1
     333.310      921.576      1.0        1
     331.088      921.526      1.0        1
     328.776      921.473      1.0        1
     326.376      921.418      1.0        1
     323.887      921.362      1.0        1
     321.309      921.303      1.0        1
     318.642      921.242      1.0        1
     315.887      921.179      1.0        1
     313.042      921.115      1.0        1
     310.109      921.048      1.0        1
     307.088      920.979      1.0        1
     303.977      920.908      1.0        1
     300.778      920.835      1.0        1
     297.490      920.760      1.0        1
     294.114      920.683      1.0        1
     290.649      920.604      1.0        1
     287.095      920.523      1.0        1
     283.453      920.440      1.0        1
     279.722      920.356      1.0        1
     275.902      920.269      1.0        1
     271.994      920.179      1.0        1
     267.997      920.088      1.0        1
     263.912      919.995      1.0        1
     259.738      919.900      1.0        1
     255.476      919.803      1.0        1
     251.125      919.704      1.0        1
     246.686      919.603      1.0        1
     242.158      919.500      1.0        1
     237.542      919.395      1.0        1
     232.837      919.288      1.0        1
     228.044      919.178      1.0        1
     223.163      919.067      1.0        1
     218.193      918.954      1.0        1
     213.135      918.839      1.0        1
     207.989      918.722      1.0        1
     202.754      918.602      1.0        1
     197.431      918.481      1.0        1
     192.020      918.358      1.0        1
     186.521      918.233      1.0        1
     180.933      918.105      1.0        1
     175.258      917.976      1.0        1
     169.494      917.845      1.0        1
     163.642      917.711      1.0        1
     157.702      917.576      1.0        1
     151.674      917.439      1.0        1
     145.558      917.299      1.0        1
     139.354      917.158      1.0        1
     133.062      917.015      1.0        1
     126.681      916.869      1.0        1
     120.213      916.722      1.0        1
     113.658      916.573      1.0        1
     107.014      916.421      1.0        1
     100.282      916.268      1.0        1
      93.463      916.113      1.0        1
      86.556      915.955      1.0        1
      79.561      915.796      1.0        1
      72.478      915.635      1.0        1
      65.308      915.471      1.0        1
      58.050      915.306      1.0        1
      50.704      915.139      1.0        1
      43.271      914.970      1.0        1
      35.750      914.798      1.0        1
      28.142      914.625      1.0        1
      20.446      914.450      1.0        1
      12.663      914.272      1.0        1
       4.792      914.093      1.0        1
     356.834      913.912      1.0        1
     348.788      913.728      1.0        1
     340.656      913.543      1.0        1
     332.435      913.356      1.0        1
     324.128      913.167      1.0        1
     315.734      912.976      1.0        1
     307.252      912.782      1.0        1
     298.683      912.587      1.0        1
     290.027      912.390      1.0        1
     281.284      912.191      1.0        1
     272.454      911.990      1.0        1
     263.537      911.787      1.0        1
     254.533      911.582      1.0        1
     245.442      911.374      1.0        1
     236.264      911.165      1.0        1
     226.999      910.954      1.0        1
     217.648      910.741      1.0        1
     208.209      910.526      1.0        1
     198.684      910.309      1.0        1
     189.073      910.090      1.0        1
     179.374      909.870      1.0        1
     169.590      909.647      1.0        1
     159.718      909.422      1.0        1
     149.760      909.195      1.0        1
     139.716      908.966      1.0        1
     129.585      908.735      1.0        1
     119.368      908.503      1.0        1
     109.064      908.268      1.0        1
      98.675      908.031      1.0        1
      88.199      907.793      1.0        1
      77.636      907.552      1.0        1
      66.988      907.310      1.0        1
      56.253      907.065      1.0        1
      45.433      906.819      1.0        1
      34.526      906.570      1.0        1
      23.534      906.320      1.0        1
      12.455      906.068      1.0        1
       1.291      905.813      1.0        1
     350.041      905.557      1.0        1
     338.705      905.299      1.0        1
     327.283      905.039      1.0        1
     315.776      904.777      1.0        1
     304.183      904.513      1.0        1
     292.505      904.247      1.0        1
     280.741      903.979      1.0        1
     268.891      903.709      1.0        1
     256.956      903.437      1.0        1
     244.936      903.163      1.0        1
     232.830      902.887      1.0        1
     220.639      902.610      1.0        1
     208.363      902.330      1.0        1
     196.002      902.049      1.0        1
     183.556      901.765      1.0        1
     171.024      901.480      1.0        1
     158.408      901.192      1.0        1
     145.706      900.903      1.0        1
     132.920      900.612      1.0        1
     120.049      900.319      1.0        1
     107.093      900.024      1.0        1
      94.053      899.727      1.0        1
      80.927      899.428      1.0        1
      67.717      899.127      1.0        1
      54.423      898.824      1.0        1
      41.044      898.519      1.0        1
      27.580      898.213      1.0        1
      14.033      897.904      1.0        1
       0.400      897.594      1.0        1
     346.684      897.281      1.0        1
     332.883      896.967      1.0        1
     318.999      896.651      1.0        1
     305.030      896.332      1.0        1
     290.977      896.012      1.0        1
     276.840      895.690      1.0        1
     262.619      895.367      1.0        1
     248.314      895.041      1.0        1
     233.926      894.713      1.0        1
     219.454      894.383      1.0        1
     204.898      894.052      1.0        1
     190.258      893.719      1.0        1
     175.535      893.383      1.0        1
     160.729      893.046      1.0        1
     145.839      892.707      1.0        1
     130.865      892.366      1.0        1
     115.809      892.023      1.0        1
     100.669      891.678      1.0        1
      85.446      891.332      1.0        1
      70.140      890.983      1.0        1
      54.751      890.633      1.0        1
      39.279      890.280      1.0        1
      23.724      889.926      1.0        1
       8.086      889.570      1.0        1
     352.365      889.212      1.0        1
     336.562      888.852      1.0        1
     320.676      888.490      1.0        1
     304.707      888.127      1.0        1
     288.656      887.761      1.0        1
     272.523      887.394      1.0        1
     256.307      887.024      1.0        1
     240.009      886.653      1.0        1
     223.628      886.280      1.0        1
     207.166      885.905      1.0        1
     190.621      885.529      1.0        1
     173.995      885.150      1.0        1
     157.286      884.770      1.0        1
     140.495      884.387      1.0        1
     123.623      884.003      1.0        1
     106.669      883.617      1.0        1
      89.633      883.229      1.0        1
      72.516      882.839      1.0        1
      55.317      882.448      1.0        1
      38.037      882.054      1.0        1
      20.675      881.659      1.0        1
       3.232      881.262      1.0        1
     345.708      880.863      1.0        1
     328.102      880.462      1.0        1
     310.416      880.059      1.0        1
     292.648      879.655      1.0        1
     274.800      879.248      1.0        1
     256.870      878.840      1.0        1
     238.860      878.430      1.0        1
     220.769      878.018      1.0        1
     202.598      877.604      1.0        1
     184.346      877.189      1.0        1
     166.013      876.771      1.0        1
     147.600      876.352      1.0        1
     129.107      875.931      1.0        1
     110.533      875.508      1.0        1
      91.880      875.084      1.0        1
      73.146      874.657      1.0        1
      54.332      874.229      1.0        1
      35.438      873.799      1.0        1
      16.464      873.367      1.0        1
     357.411      872.933      1.0        1
     338.278      872.497      1.0        1
     319.065      872.060      1.0        1
     299.773      871.621      1.0        1
     280.401      871.180      1.0        1
     260.950      870.737      1.0        1
     241.419      870.293      1.0        1
     221.809      869.846      1.0        1
     202.120      869.398      1.0        1
     182.352      868.948      1.0        1
     162.505      868.496      1.0        1
     142.579      868.043      1.0        1
     122.575      867.587      1.0        1
     102.491      867.130      1.0        1
      82.329      866.671      1.0        1
      62.089      866.211      1.0        1
      41.769      865.748      1.0        1
      21.372      865.284      1.0        1
       0.896      864.818      1.0        1
     340.342      864.350      1.0        1
     319.710      863.880      1.0        1
     298.999      863.409      1.0        1
     278.211      862.936      1.0        1
     257.345      862.461      1.0        1
     236.401      861.984      1.0        1
     215.379      861.506      1.0        1
     194.280      861.026      1.0        1
     173.103      860.544      1.0        1
     151.848      860.060      1.0        1
     130.516      859.575      1.0        1
     109.107      859.088      1.0        1
      87.621      858.599      1.0        1
      66.058      858.108      1.0        1
      44.417      857.615      1.0        1
      22.700      857.121      1.0        1
       0.906      856.625      1.0        1
     339.035      856.128      1.0        1
     317.087      855.628      1.0        1
     295.063      855.127      1.0        1
     272.962      854.624      1.0        1
     250.785      854.120      1.0        1
     228.531      853.613      1.0        1
     206.202      853.105      1.0        1
     183.796      852.596      1.0        1
     161.314      852.084      1.0        1
     138.756      851.571      1.0        1
     116.122      851.056      1.0        1
      93.413      850.539      1.0        1
      70.628      850.021      1.0        1
      47.767      849.501      1.0        1
      24.831      848.979      1.0        1
       1.819      848.456      1.0        1
     338.732      847.931      1.0        1
     315.570      847.404      1.0        1
     292.333      846.875      1.0        1
     269.020      846.345      1.0        1
     245.633      845.813      1.0        1
     222.171      845.279      1.0        1
     198.634      844.744      1.0        1
     175.023      844.207      1.0        1
     151.337      843.668      1.0        1
     127.576      843.128      1.0        1
     103.742      842.586      1.0        1
      79.832      842.042      1.0        1
      55.849      841.497      1.0        1
      31.792      840.950      1.0        1
       7.660      840.401      1.0        1
     343.455      839.851      1.0        1
     319.176      839.298      1.0        1
     294.823      838.745      1.0        1
     270.397      838.189      1.0        1
     245.897      837.632      1.0        1
     221.324      837.073      1.0        1
     196.677      836.513      1.0        1
     171.958      835.951      1.0        1
     147.165      835.387      1.0        1
     122.299      834.822      1.0        1
      97.360      834.255      1.0        1
      72.349      833.687      1.0        1
      47.264      833.116      1.0        1
      22.108      832.544      1.0        1
     356.878      831.971      1.0        1
     331.576      831.396      1.0        1
     306.202      830.819      1.0        1
     280.756      830.241      1.0        1
     255.237      829.661      1.0        1
     229.647      829.079      1.0        1
     203.984      828.496      1.0        1
     178.250      827.911      1.0        1
     152.444      827.324      1.0        1
     126.567      826.736      1.0        1
     100.618      826.147      1.0        1
      74.597      825.555      1.0        1
      48.506      824.962      1.0        1
      22.343      824.368      1.0        1
     356.109      823.772      1.0        1
     329.804      823.174      1.0        1
     303.428      822.575      1.0        1
     276.981      821.974      1.0        1
     250.464      821.372      1.0        1
     223.876      820.768      1.0        1
     197.217      820.162      1.0        1
     170.488      819.555      1.0        1
     143.689      818.946      1.0        1
     116.820      818.336      1.0        1
      89.881      817.724      1.0        1
      62.871      817.110      1.0        1
      35.792      816.495      1.0        1
       8.643      815.879      1.0        1
     341.425      815.260      1.0        1
     314.137      814.641      1.0        1
     286.779      814.019      1.0        1
     259.352      813.397      1.0        1
     231.856      812.772      1.0        1
     204.291      812.146      1.0        1
     176.657      811.519      1.0        1
     148.954      810.890      1.0        1
     121.182      810.259      1.0        1
      93.342      809.627      1.0        1
      65.432      808.994      1.0        1
      37.455      808.358      1.0        1
       9.409      807.722      1.0        1
     341.295      807.084      1.0        1
     313.112      806.444      1.0        1
     284.862      805.803      1.0        1
     256.544      805.160      1.0        1
     228.157      804.516      1.0        1
     199.703      803.870      1.0        1
     171.182      803.222      1.0        1
     142.593      802.574      1.0        1
     113.936      801.923      1.0        1
      85.213      801.272      1.0        1
      56.422      800.618      1.0        1
      27.564      799.964      1.0        1
     358.639      799.307      1.0        1
     329.647      798.650      1.0        1
     300.589      797.990      1.0        1
     271.464      797.330      1.0        1
     242.272      796.667      1.0        1
     213.014      796.004      1.0        1
     183.690      795.339      1.0        1
     154.299      794.672      1.0        1
     124.843      794.004      1.0        1
      95.320      793.334      1.0        1
      65.732      792.663      1.0        1
      36.078      791.991      1.0        1
       6.358      791.317      1.0        1
     336.573      790.642      1.0        1
     306.722      789.965      1.0        1
     276.806      789.287      1.0        1
     246.825      788.607      1.0        1
     216.779      787.926      1.0        1
     186.668      787.243      1.0        1
     156.491      786.559      1.0        1
     126.251      785.874      1.0        1
      95.945      785.187      1.0        1
      65.575      784.499      1.0        1
      35.141      783.809      1.0        1
       4.643      783.118      1.0        1
     334.080      782.425      1.0        1
     303.453      781.731      1.0        1
     272.762      781.036      1.0        1
     242.008      780.339      1.0        1
     211.189      779.641      1.0        1
     180.308      778.941      1.0        1
     149.362      778.240      1.0        1
     118.354      777.538      1.0        1
      87.282      776.834      1.0        1
      56.146      776.129      1.0        1
      24.948      775.423      1.0        1
     353.687      774.715      1.0        1
     322.363      774.005      1.0        1
     290.977      773.295      1.0        1
     259.528      772.583      1.0        1
     228.016      771.869      1.0        1
     196.442      771.155      1.0        1
     164.806      770.438      1.0        1
     133.108      769.721      1.0        1
     101.347      769.002      1.0        1
      69.525      768.282      1.0        1
      37.641      767.560      1.0        1
       5.696      766.837      1.0        1
     333.689      766.113      1.0        1
     301.620      765.387      1.0        1
     269.490      764.661      1.0        1
     237.299      763.932      1.0        1
     205.047      763.203      1.0        1
     172.734      762.472      1.0        1
     140.360      761.739      1.0        1
     107.926      761.006      1.0        1
      75.431      760.271      1.0        1
      42.875      759.535      1.0        1
      10.259      758.797      1.0        1
     337.583      758.058      1.0        1
     304.846      757.318      1.0        1
     272.050      756.577      1.0        1
     239.194      755.834      1.0        1
     206.277      755.090      1.0        1
     173.302      754.345      1.0        1
     140.266      753.598      1.0        1
     107.172      752.850      1.0        1
      74.018      752.101      1.0        1
      40.804      751.351      1.0        1
       7.532      750.599      1.0        1
     334.201      749.846      1.0        1
     300.811      749.092      1.0        1
     267.362      748.336      1.0        1
     233.855      747.579      1.0        1
     200.289      746.821      1.0        1
     166.664      746.062      1.0        1
     132.982      745.301      1.0        1
      99.241      744.539      1.0        1
      65.443      743.776      1.0        1
      31.586      743.012      1.0        1
     357.672      742.246      1.0        1
     323.700      741.480      1.0        1
     289.670      740.712      1.0        1
     255.583      739.942      1.0        1
     221.439      739.172      1.0        1
     187.238      738.400      1.0        1
     152.979      737.627      1.0        1
     118.664      736.853      1.0        1
      84.292      736.078      1.0        1
      49.863      735.301      1.0        1
      15.377      734.523      1.0        1
     340.835      733.744      1.0        1
     306.237      732.964      1.0        1
     271.582      732.183      1.0        1
     236.872      731.400      1.0        1
     202.105      730.617      1.0        1
     167.283      729.832      1.0        1
     132.404      729.045      1.0        1
      97.471      728.258      1.0        1
      62.481      727.470      1.0        1
      27.436      726.680      1.0        1
     352.336      725.889      1.0        1
     317.181      725.097      1.0        1
     281.971      724.304      1.0        1
     246.706      723.510      1.0        1
     211.386      722.714      1.0        1
     176.012      721.918      1.0        1
     140.583      721.120      1.0        1
     105.099      720.321      1.0        1
      69.561      719.521      1.0        1
      33.969      718.720      1.0        1
     358.323      717.918      1.0        1
     322.624      717.114      1.0        1
     286.870      716.310      1.0        1
     251.062      715.504      1.0        1
     215.201      714.697      1.0        1
     179.287      713.889      1.0        1
     143.319      713.080      1.0        1
     107.298      712.270      1.0        1
      71.224      711.459      1.0        1
      35.096      710.647      1.0        1
     358.916      709.833      1.0        1
     322.684      709.019      1.0        1
     286.398      708.203      1.0        1
     250.060      707.386      1.0        1
     213.670      706.569      1.0        1
     177.228      705.750      1.0        1
     140.733      704.930      1.0        1
     104.187      704.109      1.0        1
      67.588      703.287      1.0        1
      30.938      702.463      1.0        1
     354.236      701.639      1.0        1
     317.482      700.814      1.0        1
     280.678      699.988      1.0        1
     243.821      699.160      1.0        1
     206.914      698.332      1.0        1
     169.956      697.502      1.0        1
     132.947      696.672      1.0        1
      95.886      695.840      1.0        1
      58.776      695.008      1.0        1
      21.614      694.174      1.0        1
     344.403      693.340      1.0        1
     307.141      692.504      1.0        1
     269.828      691.667      1.0        1
     232.466      690.830      1.0        1
     195.054      689.991      1.0        1
     157.592      689.151      1.0        1
     120.080      688.310      1.0        1
      82.519      687.469      1.0        1
      44.908      686.626      1.0        1
       7.247      685.782      1.0        1
     329.538      684.938      1.0        1
     291.780      684.092      1.0        1
     253.972      683.245      1.0        1
     216.116      682.398      1.0        1
     178.210      681.549      1.0        1
     140.257      680.700      1.0        1
     102.254      679.849      1.0        1
      64.204      678.998      1.0        1
      26.105      678.145      1.0        1
     347.958      677.292      1.0        1
     309.763      676.437      1.0        1
     271.520      675.582      1.0        1
     233.229      674.726      1.0        1
     194.891      673.869      1.0        1
     156.505      673.010      1.0        1
     118.072      672.151      1.0        1
      79.591      671.291      1.0        1
      41.063      670.430      1.0        1
       2.488      669.569      1.0        1
     323.867      668.706      1.0        1
     285.198      667.842      1.0        1
     246.483      666.978      1.0        1
     207.721      666.112      1.0        1
     168.913      665.246      1.0        1
     130.058      664.379      1.0        1
      91.157      663.510      1.0        1
      52.210      662.641      1.0        1
      13.217      661.771      1.0        1
     334.179      660.900      1.0        1
     295.094      660.029      1.0        1
     255.964      659.156      1.0        1
     216.789      658.283      1.0        1
     177.568      657.408      1.0        1
     138.302      656.533      1.0        1
      98.990      655.657      1.0        1
      59.634      654.780      1.0        1
      20.233      653.902      1.0        1
     340.787      653.024      1.0        1
     301.297      652.144      1.0        1
     261.762      651.264      1.0        1
     222.182      650.383      1.0        1
     182.558      649.501      1.0        1
     142.890      648.618      1.0        1
     103.179      647.735      1.0        1
      63.423      646.850      1.0        1
      23.623      645.965      1.0        1
     343.780      645.079      1.0        1
     303.893      644.192      1.0        1
     263.962      643.304      1.0        1
     223.989      642.416      1.0        1
     183.972      641.526      1.0        1
     143.912      640.636      1.0        1
     103.809      639.745      1.0        1
      63.663      638.854      1.0        1
      23.474      637.961      1.0        1
     343.243      637.068      1.0        1
     302.970      636.174      1.0        1
     262.654      635.279      1.0        1
     222.295      634.384      1.0        1
     181.895      633.488      1.0        1
     141.453      632.591      1.0        1
     100.968      631.693      1.0        1
      60.442      630.794      1.0        1
      19.874      629.895      1.0        1
     339.265      628.995      1.0        1
     298.614      628.094      1.0        1
     257.922      627.192      1.0        1
     217.189      626.290      1.0        1
     176.415      625.387      1.0        1
     135.600      624.484      1.0        1
      94.744      623.579      1.0        1
      53.847      622.674      1.0        1
      12.910      621.768      1.0        1
     331.932      620.862      1.0        1
     290.914      619.954      1.0        1
     249.855      619.046      1.0        1
     208.757      618.138      1.0        1
     167.618      617.228      1.0        1
     126.440      616.318      1.0        1
      85.221      615.408      1.0        1
      43.964      614.496      1.0        1
       2.666      613.584      1.0        1
     321.329      612.671      1.0        1
     279.953      611.758      1.0        1
     238.538      610.844      1.0        1
     197.083      609.929      1.0        1
     155.590      609.014      1.0        1
     114.058      608.098      1.0        1
      72.487      607.181      1.0        1
      30.878      606.264      1.0        1
     349.230      605.346      1.0        1
     307.543      604.427      1.0        1
     265.819      603.508      1.0        1
     224.056      602.588      1.0        1
     182.255      601.667      1.0        1
     140.416      600.746      1.0        1
      98.540      599.825      1.0        1
      56.626      598.902      1.0        1
      14.674      597.979      1.0        1
     332.685      597.056      1.0        1
     290.658      596.132      1.0        1
     248.595      595.207      1.0        1
     206.494      594.281      1.0        1
     164.356      593.356      1.0        1
     122.181      592.429      1.0        1
      79.970      591.502      1.0        1
      37.722      590.574      1.0        1
     355.437      589.646      1.0        1
     313.116      588.717      1.0        1
     270.759      587.788      1.0        1
     228.366      586.858      1.0        1
     185.936      585.928      1.0        1
     143.471      584.997      1.0        1
     100.969      584.065      1.0        1
      58.432      583.133      1.0        1
      15.860      582.200      1.0        1
     333.251      581.267      1.0        1
     290.608      580.333      1.0        1
     247.929      579.399      1.0        1
     205.215      578.464      1.0        1
     162.466      577.529      1.0        1
     119.682      576.593      1.0        1
      76.864      575.657      1.0        1
      34.010      574.720      1.0        1
     351.122      573.783      1.0        1
     308.199      572.845      1.0        1
     265.243      571.907      1.0        1
     222.251      570.968      1.0        1
     179.226      570.029      1.0        1
     136.167      569.089      1.0        1
      93.074      568.149      1.0        1
      49.947      567.208      1.0        1
       6.786      566.267      1.0        1
     323.591      565.325      1.0        1
     280.364      564.383      1.0        1
     237.102      563.441      1.0        1
     193.808      562.498      1.0        1
     150.481      561.554      1.0        1
     107.120      560.610      1.0        1
      63.726      559.666      1.0        1
      20.300      558.721      1.0        1
     336.841      557.776      1.0        1
     293.350      556.830      1.0        1
     249.825      555.884      1.0        1
     206.269      554.938      1.0        1
     162.680      553.991      1.0        1
     119.059      553.044      1.0        1
      75.407      552.096      1.0        1
      31.722      551.148      1.0        1
     348.005      550.200      1.0        1
     304.257      549.251      1.0        1
     260.477      548.301      1.0        1
     216.666      547.352      1.0        1
     172.823      546.402      1.0        1
     128.949      545.451      1.0        1
      85.043      544.501      1.0        1
      41.107      543.549      1.0        1
     357.140      542.598      1.0        1
     313.142      541.646      1.0        1
     269.113      540.694      1.0        1
     225.054      539.741      1.0        1
     180.964      538.788      1.0        1
     136.843      537.835      1.0        1
      92.693      536.881      1.0        1
      48.512      535.927      1.0        1
       4.301      534.973      1.0        1
     320.060      534.019      1.0        1
     275.789      533.064      1.0        1
     231.488      532.108      1.0        1
     187.158      531.153      1.0        1
     142.798      530.197      1.0        1
      98.409      529.241      1.0        1
      53.991      528.284      1.0        1
       9.543      527.328      1.0        1
     325.066      526.370      1.0        1
     280.560      525.413      1.0        1
     236.025      524.456      1.0        1
     191.461      523.498      1.0        1
     146.869      522.539      1.0        1
     102.248      521.581      1.0        1
      57.598      520.622      1.0        1
      12.920      519.663      1.0        1
     328.214      518.704      1.0        1
     283.480      517.744      1.0        1
     238.717      516.785      1.0        1
     193.927      515.825      1.0        1
     149.108      514.864      1.0        1
     104.262      513.904      1.0        1
      59.388      512.943      1.0        1
      14.487      511.982      1.0        1
     329.558      511.021      1.0        1
     284.602      510.060      1.0        1
     239.619      509.098      1.0        1
     194.608      508.136      1.0        1
     149.570      507.174      1.0        1
     104.506      506.212      1.0        1
      59.414      505.249      1.0        1
      14.296      504.287      1.0        1
     329.151      503.324      1.0        1
     283.980      502.361      1.0        1
     238.782      501.398      1.0        1
     193.558      500.434      1.0        1
     148.307      499.471      1.0        1
     103.031      498.507      1.0        1
      57.728      497.543      1.0        1
      12.400      496.579      1.0        1
     327.045      495.615      1.0        1
     281.665      494.651      1.0        1
     236.259      493.686      1.0        1
     190.828      492.721      1.0        1
     145.371      491.757      1.0        1
      99.889      490.792      1.0        1
      54.382      489.827      1.0        1
       8.849      488.861      1.0        1
     323.292      487.896      1.0        1
     277.709      486.931      1.0        1
     232.102      485.965      1.0        1
     186.470      484.999      1.0        1
     140.813      484.034      1.0        1
      95.132      483.068      1.0        1
      49.426      482.102      1.0        1
       3.696      481.136      1.0        1
     317.942      480.170      1.0        1
     272.163      479.203      1.0        1
     226.361      478.237      1.0        1
     180.534      477.271      1.0        1
     134.684      476.304      1.0        1
      88.810      475.338      1.0        1
      42.912      474.371      1.0        1
     356.990      473.404      1.0        1
     311.045      472.437      1.0        1
     265.077      471.471      1.0        1
     219.085      470.504      1.0        1
     173.071      469.537      1.0        1
     127.033      468.570      1.0        1
      80.972      467.603      1.0        1
      34.888      466.636      1.0        1
     348.781      465.669      1.0        1
     302.652      464.702      1.0        1
     256.500      463.735      1.0        1
     210.325      462.768      1.0        1
     164.128      461.801      1.0        1
     117.909      460.834      1.0        1
      71.667      459.867      1.0        1
      25.403      458.900      1.0        1
     339.117      457.933      1.0        1
     292.809      456.966      1.0        1
     246.480      455.999      1.0        1
     200.128      455.032      1.0        1
     153.755      454.065      1.0        1
     107.360      453.098      1.0        1
      60.943      452.131      1.0        1
      14.506      451.164      1.0        1
     328.046      450.197      1.0        1
     281.566      449.230      1.0        1
     235.064      448.263      1.0        1
     188.542      447.297      1.0        1
     141.998      446.330      1.0        1
      95.434      445.363      1.0        1
      48.848      444.397      1.0        1
       2.242      443.430      1.0        1
     315.616      442.464      1.0        1
     268.969      441.498      1.0        1
     222.301      440.532      1.0        1
     175.613      439.565      1.0        1
     128.905      438.599      1.0        1
      82.177      437.633      1.0        1
      35.428      436.668      1.0        1
     348.660      435.702      1.0        1
     301.871      434.736      1.0        1
     255.063      433.771      1.0        1
     208.235      432.805      1.0        1
     161.388      431.840      1.0        1
     114.521      430.875      1.0        1
      67.634      429.910      1.0        1
      20.728      428.945      1.0        1
     333.803      427.980      1.0        1
     286.859      427.016      1.0        1
     239.895      426.051      1.0        1
     192.913      425.087      1.0        1
     145.911      424.123      1.0        1
      98.891      423.159      1.0        1
      51.852      422.195      1.0        1
       4.794      421.231      1.0        1
     317.717      420.268      1.0        1
     270.622      419.305      1.0        1
     223.509      418.342      1.0        1
     176.377      417.379      1.0        1
     129.227      416.416      1.0        1
      82.059      415.453      1.0        1
      34.873      414.491      1.0        1
     347.668      413.529      1.0        1
     300.446      412.567      1.0        1
     253.206      411.605      1.0        1
     205.948      410.644      1.0        1
     158.673      409.682      1.0        1
     111.380      408.721      1.0        1
      64.069      407.761      1.0        1
      16.741      406.800      1.0        1
     329.395      405.840      1.0        1
     282.032      404.879      1.0        1
     234.653      403.920      1.0        1
     187.255      402.960      1.0        1
     139.841      402.001      1.0        1
      92.410      401.041      1.0        1
      44.962      400.083      1.0        1
     357.498      399.124      1.0        1
     310.016      398.166      1.0        1
     262.518      397.208      1.0        1
     215.004      396.250      1.0        1
     167.473      395.292      1.0        1
     119.925      394.335      1.0        1
      72.362      393.378      1.0        1
      24.782      392.422      1.0        1
     337.185      391.465      1.0        1
     289.573      390.509      1.0        1
     241.945      389.553      1.0        1
     194.301      388.598      1.0        1
     146.641      387.643      1.0        1
      98.965      386.688      1.0        1
      51.274      385.734      1.0        1
       3.567      384.780      1.0        1
     315.844      383.826      1.0        1
     268.106      382.872      1.0        1
     220.353      381.919      1.0        1
     172.584      380.967      1.0        1
     124.800      380.014      1.0        1
      77.001      379.062      1.0        1
      29.187      378.110      1.0        1
     341.358      377.159      1.0        1
     293.514      376.208      1.0        1
     245.655      375.258      1.0        1
     197.781      374.307      1.0        1
     149.893      373.357      1.0        1
     101.989      372.408      1.0        1
      54.072      371.459      1.0        1
       6.140      370.510      1.0        1
     318.193      369.562      1.0        1
     270.233      368.614      1.0        1
     222.258      367.667      1.0        1
     174.268      366.720      1.0        1
     126.265      365.773      1.0        1
      78.248      364.827      1.0        1
      30.216      363.881      1.0        1
     342.171      362.935      1.0        1
     294.112      361.990      1.0        1
     246.039      361.046      1.0        1
     197.952      360.102      1.0        1
     149.852      359.158      1.0        1
     101.739      358.215      1.0        1
      53.612      357.272      1.0        1
       5.471      356.330      1.0        1
     317.317      355.388      1.0        1
     269.150      354.447      1.0        1
     220.970      353.506      1.0        1
     172.776      352.565      1.0        1
     124.570      351.625      1.0        1
      76.351      350.686      1.0        1
      28.118      349.747      1.0        1
     339.873      348.808      1.0        1
     291.615      347.870      1.0        1
     243.344      346.933      1.0        1
     195.061      345.996      1.0        1
     146.765      345.059      1.0        1
      98.457      344.123      1.0        1
      50.136      343.187      1.0        1
       1.803      342.252      1.0        1
     313.458      341.318      1.0        1
     265.100      340.384      1.0        1
     216.730      339.450      1.0        1
     168.348      338.518      1.0        1
     119.954      337.585      1.0        1
      71.548      336.653      1.0        1
      23.130      335.722      1.0        1
     334.701      334.791      1.0        1
     286.259      333.861      1.0        1
     237.806      332.931      1.0        1
     189.341      332.002      1.0        1
     140.865      331.074      1.0        1
      92.377      330.146      1.0        1
      43.878      329.219      1.0        1
     355.367      328.292      1.0        1
     306.845      327.366      1.0        1
     258.312      326.440      1.0        1
     209.768      325.515      1.0        1
     161.212      324.590      1.0        1
     112.645      323.667      1.0        1
      64.068      322.743      1.0        1
      15.479      321.821      1.0        1
     326.880      320.899      1.0        1
     278.269      319.977      1.0        1
     229.648      319.056      1.0        1
     181.017      318.136      1.0        1
     132.374      317.217      1.0        1
      83.722      316.298      1.0        1
      35.058      315.379      1.0        1
     346.384      314.462      1.0        1
     297.700      313.545      1.0        1
     249.005      312.628      1.0        1
     200.301      311.713      1.0        1
     151.586      310.798      1.0        1
     102.860      309.883      1.0        1
      54.125      308.969      1.0        1
       5.380      308.056      1.0        1
     316.625      307.144      1.0        1
     267.859      306.232      1.0        1
     219.084      305.321      1.0        1
     170.300      304.411      1.0        1
     121.505      303.501      1.0        1
      72.701      302.592      1.0        1
      23.887      301.684      1.0        1
     335.064      300.776      1.0        1
     286.231      299.869      1.0        1
     237.388      298.963      1.0        1
     188.537      298.058      1.0        1
     139.675      297.153      1.0        1
      90.805      296.249      1.0        1
      41.925      295.345      1.0        1
     353.037      294.443      1.0        1
     304.139      293.541      1.0        1
     255.232      292.640      1.0        1
     206.316      291.739      1.0        1
     157.391      290.840      1.0        1
     108.457      289.941      1.0        1
      59.515      289.042      1.0        1
      10.563      288.145      1.0        1
     321.603      287.248      1.0        1
     272.635      286.352      1.0        1
     223.657      285.457      1.0        1
     174.671      284.563      1.0        1
     125.677      283.669      1.0        1
      76.674      282.776      1.0        1
      27.663      281.884      1.0        1
     338.643      280.993      1.0        1
     289.615      280.103      1.0        1
     240.579      279.213      1.0        1
     191.534      278.324      1.0        1
     142.482      277.436      1.0        1
      93.421      276.549      1.0        1
      44.352      275.662      1.0        1
     355.276      274.777      1.0        1
     306.191      273.892      1.0        1
     257.099      273.008      1.0        1
     207.998      272.124      1.0        1
     158.890      271.242      1.0        1
     109.774      270.361      1.0        1
      60.651      269.480      1.0        1
      11.520      268.600      1.0        1
     322.381      267.721      1.0        1
     273.235      266.843      1.0        1
     224.081      265.965      1.0        1
     174.920      265.089      1.0        1
     125.751      264.213      1.0        1
      76.575      263.338      1.0        1
      27.392      262.465      1.0        1
     338.201      261.592      1.0        1
     289.004      260.719      1.0        1
     239.799      259.848      1.0        1
     190.587      258.978      1.0        1
     141.368      258.108      1.0        1
      92.142      257.240      1.0        1
      42.909      256.372      1.0        1
     353.669      255.505      1.0        1
     304.422      254.639      1.0        1
     255.169      253.774      1.0        1
     205.909      252.910      1.0        1
     156.641      252.047      1.0        1
     107.368      251.184      1.0        1
      58.087      250.323      1.0        1
       8.800      249.463      1.0        1
     319.507      248.603      1.0        1
     270.207      247.745      1.0        1
     220.900      246.887      1.0        1
     171.587      246.030      1.0        1
     122.268      245.174      1.0        1
      72.943      244.320      1.0        1
      23.611      243.466      1.0        1
     334.273      242.613      1.0        1
     284.928      241.761      1.0        1
     235.578      240.910      1.0        1
     186.221      240.060      1.0        1
     136.859      239.211      1.0        1
      87.490      238.362      1.0        1
      38.115      237.515      1.0        1
     348.735      236.669      1.0        1
     299.348      235.824      1.0        1
     249.956      234.980      1.0        1
     200.558      234.137      1.0        1
     151.154      233.294      1.0        1
     101.745      232.453      1.0        1
      52.329      231.613      1.0        1
       2.908      230.774      1.0        1
     313.482      229.936      1.0        1
     264.050      229.098      1.0        1
     214.612      228.262      1.0        1
     165.169      227.427      1.0        1
     115.720      226.593      1.0        1
      66.266      225.760      1.0        1
      16.807      224.928      1.0        1
     327.342      224.097      1.0        1
     277.872      223.267      1.0        1
     228.397      222.438      1.0        1
     178.917      221.610      1.0        1
     129.431      220.783      1.0        1
      79.940      219.957      1.0        1
      30.444      219.133      1.0        1
     340.944      218.309      1.0        1
     291.438      217.486      1.0        1
     241.927      216.665      1.0        1
     192.411      215.844      1.0        1
     142.890      215.025      1.0        1
      93.365      214.207      1.0        1
      43.834      213.389      1.0        1
     354.299      212.573      1.0        1
     304.759      211.758      1.0        1
     255.214      210.944      1.0        1
     205.665      210.131      1.0        1
     156.111      209.319      1.0        1
     106.552      208.509      1.0        1
      56.989      207.699      1.0        1
       7.421      206.891      1.0        1
     317.849      206.083      1.0        1
     268.272      205.277      1.0        1
     218.691      204.472      1.0        1
     169.105      203.668      1.0        1
     119.515      202.865      1.0        1
      69.921      202.063      1.0        1
      20.322      201.263      1.0        1
     330.719      200.463      1.0        1
     281.112      199.665      1.0        1
     231.500      198.868      1.0        1
     181.885      198.072      1.0        1
     132.265      197.277      1.0        1
      82.641      196.483      1.0        1
      33.014      195.691      1.0        1
     343.382      194.899      1.0        1
     293.746      194.109      1.0        1
     244.106      193.320      1.0        1
     194.462      192.532      1.0        1
     144.814      191.745      1.0        1
      95.163      190.960      1.0        1
      45.507      190.176      1.0        1
     355.848      189.392      1.0        1
     306.185      188.610      1.0        1
     256.518      187.830      1.0        1
     206.848      187.050      1.0        1
     157.174      186.272      1.0        1
     107.496      185.495      1.0        1
      57.814      184.719      1.0        1
       8.129      183.944      1.0        1
     318.441      183.170      1.0        1
     268.748      182.398      1.0        1
     219.053      181.627      1.0        1
     169.353      180.857      1.0        1
     119.651      180.088      1.0        1
      69.945      179.321      1.0        1
      20.235      178.555      1.0        1
     330.523      177.790      1.0        1
     280.806      177.026      1.0        1
     231.087      176.264      1.0        1
     181.364      175.502      1.0        1
     131.638      174.743      1.0        1
      81.909      173.984      1.0        1
      32.177      173.226      1.0        1
     342.441      172.470      1.0        1
     292.702      171.715      1.0        1
     242.960      170.962      1.0        1
     193.215      170.209      1.0        1
     143.468      169.458      1.0        1
      93.716      168.708      1.0        1
      43.962      167.960      1.0        1
     354.205      167.213      1.0        1
     304.446      166.467      1.0        1
     254.683      165.722      1.0        1
     204.917      164.978      1.0        1
     155.148      164.236      1.0        1
     105.377      163.496      1.0        1
      55.602      162.756      1.0        1
       5.825      162.018      1.0        1
     316.045      161.281      1.0        1
     266.263      160.546      1.0        1
     216.477      159.811      1.0        1
     166.689      159.078      1.0        1
     116.899      158.347      1.0        1
      67.105      157.617      1.0        1
      17.309      156.888      1.0        1
     327.510      156.160      1.0        1
     277.709      155.434      1.0        1
     227.906      154.709      1.0        1
     178.099      153.985      1.0        1
     128.290      153.263      1.0        1
      78.479      152.542      1.0        1
      28.665      151.823      1.0        1
     338.849      151.104      1.0        1
     289.031      150.388      1.0        1
     239.210      149.672      1.0        1
     189.386      148.958      1.0        1
     139.561      148.245      1.0        1
      89.733      147.534      1.0        1
      39.902      146.824      1.0        1
     350.070      146.115      1.0        1
     300.235      145.408      1.0        1
     250.398      144.702      1.0        1
     200.558      143.998      1.0        1
     150.717      143.295      1.0        1
     100.873      142.593      1.0        1
      51.027      141.893      1.0        1
       1.179      141.194      1.0        1
     311.329      140.496      1.0        1
     261.477      139.800      1.0        1
     211.623      139.106      1.0        1
     161.767      138.412      1.0        1
     111.908      137.721      1.0        1
      62.048      137.030      1.0        1
      12.186      136.341      1.0        1
     322.321      135.654      1.0        1
     272.455      134.967      1.0        1
     222.587      134.283      1.0        1
     172.717      133.599      1.0        1
     122.845      132.918      1.0        1
      72.971      132.237      1.0        1
      23.096      131.558      1.0        1
     333.218      130.881      1.0        1
     283.339      130.205      1.0        1
     233.458      129.530      1.0        1
     183.575      128.857      1.0        1
     133.690      128.185      1.0        1
      83.804      127.515      1.0        1
      33.915      126.846      1.0        1
     344.026      126.179      1.0        1
     294.134      125.513      1.0        1
     244.241      124.848      1.0        1
     194.346      124.185      1.0        1
     144.450      123.524      1.0        1
      94.551      122.864      1.0        1
      44.652      122.205      1.0        1
     354.750      121.548      1.0        1
     304.848      120.893      1.0        1
     254.943      120.239      1.0        1
     205.037      119.586      1.0        1
     155.130      118.935      1.0        1
     105.221      118.286      1.0        1
      55.310      117.638      1.0        1
       5.399      116.991      1.0        1
     315.485      116.346      1.0        1
     265.570      115.703      1.0        1
     215.654      115.061      1.0        1
     165.736      114.420      1.0        1
     115.817      113.781      1.0        1
      65.897      113.144      1.0        1
      15.975      112.508      1.0        1
     326.052      111.874      1.0        1
     276.128      111.241      1.0        1
     226.202      110.609      1.0        1
     176.275      109.980      1.0        1
     126.347      109.351      1.0        1
      76.417      108.725      1.0        1
      26.486      108.100      1.0        1
     336.554      107.476      1.0        1
     286.621      106.854      1.0        1
     236.686      106.233      1.0        1
     186.751      105.614      1.0        1
     136.814      104.997      1.0        1
      86.875      104.381      1.0        1
      36.936      103.767      1.0        1
     346.996      103.154      1.0        1
     297.054      102.543      1.0        1
     247.112      101.934      1.0        1
     197.168      101.326      1.0        1
     147.223      100.719      1.0        1
      97.277      100.114      1.0        1
      47.330       99.511      1.0        1
     357.382       98.909      1.0        1
     307.433       98.309      1.0        1
     257.483       97.711      1.0        1
     207.532       97.114      1.0        1
     157.580       96.519      1.0        1
     107.626       95.925      1.0        1
      57.672       95.333      1.0        1
       7.717       94.742      1.0        1
     317.761       94.154      1.0        1
     267.804       93.566      1.0        1
     217.846       92.981      1.0        1
     167.887       92.397      1.0        1
     117.928       91.814      1.0        1
      67.967       91.233      1.0        1
      18.005       90.654      1.0        1
     328.043       90.077      1.0        1
     278.080       89.501      1.0        1
     228.116       88.926      1.0        1
     178.151       88.354      1.0        1
     128.185       87.783      1.0        1
      78.218       87.213      1.0        1
      28.251       86.645      1.0        1
     338.282       86.079      1.0        1
     288.313       85.515      1.0        1
     238.344       84.952      1.0        1
     188.373       84.391      1.0        1
     138.402       83.831      1.0        1
      88.429       83.273      1.0        1
      38.457       82.717      1.0        1
     348.483       82.162      1.0        1
     298.509       81.609      1.0        1
     248.534       81.058      1.0        1
     198.558       80.509      1.0        1
     148.582       79.961      1.0        1
      98.604       79.414      1.0        1
      48.627       78.870      1.0        1
     358.648       78.327      1.0        1
     308.669       77.786      1.0        1
     258.689       77.246      1.0        1
     208.709       76.708      1.0        1
     158.728       76.172      1.0        1
     108.746       75.638      1.0        1
      58.764       75.105      1.0        1
       8.781       74.574      1.0        1
     318.798       74.044      1.0        1
     268.814       73.517      1.0        1
     218.829       72.991      1.0        1
     168.844       72.466      1.0        1
     118.858       71.944      1.0        1
      68.872       71.423      1.0        1
      18.885       70.904      1.0        1
     328.898       70.386      1.0        1
     278.910       69.870      1.0        1
     228.921       69.356      1.0        1
     178.932       68.844      1.0        1
     128.943       68.333      1.0        1
      78.953       67.824      1.0        1
      28.962       67.317      1.0        1
     338.971       66.812      1.0        1
     288.980       66.308      1.0        1
     238.988       65.806      1.0        1
     188.996       65.306      1.0        1
     139.003       64.807      1.0        1
      89.010       64.311      1.0        1
      39.016       63.816      1.0        1
     349.022       63.322      1.0        1
     299.027       62.831      1.0        1
     249.032       62.341      1.0        1
     199.037       61.853      1.0        1
     149.041       61.366      1.0        1
      99.045       60.882      1.0        1
      49.048       60.399      1.0        1
     359.051       59.918      1.0        1
     309.053       59.439      1.0        1
     259.056       58.961      1.0        1
     209.057       58.485      1.0        1
     159.059       58.011      1.0        1
     109.060       57.539      1.0        1
      59.061       57.069      1.0        1
       9.061       56.600      1.0        1
     319.061       56.133      1.0        1
     269.061       55.668      1.0        1
     219.060       55.205      1.0        1
     169.059       54.743      1.0        1
     119.058       54.283      1.0        1
      69.056       53.825      1.0        1
      19.054       53.369      1.0        1
     329.052       52.914      1.0        1
     279.049       52.462      1.0        1
     229.046       52.011      1.0        1
     179.043       51.562      1.0        1
     129.040       51.115      1.0        1
      79.036       50.669      1.0        1
      29.032       50.225      1.0        1
     339.028       49.784      1.0        1
     289.023       49.343      1.0        1
     239.018       48.905      1.0        1
     189.013       48.469      1.0        1
     139.008       48.034      1.0        1
      89.002       47.601      1.0        1
      38.997       47.170      1.0        1
     348.990       46.741      1.0        1
     298.984       46.314      1.0        1
     248.978       45.888      1.0        1
     198.971       45.464      1.0        1
     148.964       45.042      1.0        1
      98.957       44.622      1.0        1
      48.949       44.204      1.0        1
     358.942       43.787      1.0        1
     308.934       43.373      1.0        1
     258.926       42.960      1.0        1
     208.917       42.549      1.0        1
     158.909       42.140      1.0        1
     108.900       41.732      1.0        1
      58.891       41.327      1.0        1
       8.882       40.923      1.0        1
     318.873       40.522      1.0        1
     268.864       40.122      1.0        1
     218.854       39.724      1.0        1
     168.844       39.327      1.0        1
     118.835       38.933      1.0        1
      68.824       38.540      1.0        1
      18.814       38.150      1.0        1
     328.804       37.761      1.0        1
     278.793       37.374      1.0        1
     228.783       36.989      1.0        1
     178.772       36.606      1.0        1
     128.761       36.224      1.0        1
      78.750       35.845      1.0        1
      28.738       35.467      1.0        1
     338.727       35.091      1.0        1
     288.715       34.717      1.0        1
     238.703       34.345      1.0        1
     188.692       33.975      1.0        1
     138.680       33.607      1.0        1
      88.668       33.240      1.0        1
      38.655       32.876      1.0        1
     348.643       32.513      1.0        1
     298.631       32.152      1.0        1
     248.618       31.793      1.0        1
     198.605       31.436      1.0        1
     148.593       31.081      1.0        1
      98.580       30.728      1.0        1
      48.567       30.376      1.0        1
     358.554       30.027      1.0        1
     308.540       29.679      1.0        1
     258.527       29.333      1.0        1
     208.514       28.989      1.0        1
     158.500       28.647      1.0        1
     108.487       28.307      1.0        1
      58.473       27.969      1.0        1
       8.459       27.633      1.0        1
     318.445       27.299      1.0        1
     268.431       26.966      1.0        1
     218.417       26.636      1.0        1
     168.403       26.307      1.0        1
     118.389       25.980      1.0        1
      68.375       25.655      1.0        1
      18.361       25.332      1.0        1
     328.346       25.011      1.0        1
     278.332       24.692      1.0        1
     228.317       24.375      1.0        1
     178.303       24.060      1.0        1
     128.288       23.747      1.0        1
      78.273       23.435      1.0        1
      28.258       23.126      1.0        1
     338.244       22.818      1.0        1
     288.229       22.512      1.0        1
     238.214       22.209      1.0        1
     188.199       21.907      1.0        1
     138.184       21.607      1.0        1
      88.168       21.309      1.0        1
      38.153       21.013      1.0        1
     348.138       20.719      1.0        1
     298.123       20.427      1.0        1
     248.107       20.136      1.0        1
     198.092       19.848      1.0        1
     148.077       19.562      1.0        1
      98.061       19.277      1.0        1
      48.046       18.995      1.0        1
     358.030       18.714      1.0        1
     308.015       18.435      1.0        1
     257.999       18.159      1.0        1
     207.983       17.884      1.0        1
     157.967       17.611      1.0        1
     107.952       17.340      1.0        1
      57.936       17.071      1.0        1
       7.920       16.804      1.0        1
     317.904       16.539      1.0        1
     267.888       16.276      1.0        1
     217.873       16.015      1.0        1
     167.857       15.756      1.0        1
     117.841       15.499      1.0        1
      67.825       15.243      1.0        1
      17.809       14.990      1.0        1
     327.793       14.739      1.0        1
     277.776       14.489      1.0        1
     227.760       14.242      1.0        1
     177.744       13.996      1.0        1
     127.728       13.753      1.0        1
      77.712       13.511      1.0        1
      27.696       13.272      1.0        1
     337.680       13.034      1.0        1
     287.663       12.798      1.0        1
     237.647       12.565      1.0        1
     187.631       12.333      1.0        1
     137.614       12.103      1.0        1
      87.598       11.875      1.0        1
      37.582       11.650      1.0        1
     347.565       11.426      1.0        1
     297.549       11.204      1.0        1
     247.533       10.984      1.0        1
     197.516       10.766      1.0        1
     147.500       10.550      1.0        1
      97.484       10.336      1.0        1
      47.467       10.124      1.0        1
     357.451        9.914      1.0        1
     307.434        9.706      1.0        1
     257.418        9.500      1.0        1
     207.401        9.296      1.0        1
     157.385        9.094      1.0        1
     107.368        8.893      1.0        1
      57.352        8.695      1.0        1
       7.335        8.499      1.0        1
     317.319        8.305      1.0        1
     267.302        8.113      1.0        1
     217.286        7.923      1.0        1
     167.269        7.734      1.0        1
     117.252        7.548      1.0        1
      67.236        7.364      1.0        1
      17.219        7.182      1.0        1
     327.203        7.001      1.0        1
     277.186        6.823      1.0        1
     227.169        6.647      1.0        1
     177.153        6.472      1.0        1
     127.136        6.300      1.0        1
      77.120        6.130      1.0        1
      27.103        5.961      1.0        1
     337.086        5.795      1.0        1
     287.070        5.631      1.0        1
     237.053        5.468      1.0        1
     187.036        5.308      1.0        1
     137.020        5.150      1.0        1
      87.003        4.993      1.0        1
      36.987        4.839      1.0        1
     346.970        4.687      1.0        1
     296.953        4.536      1.0        1
     246.937        4.388      1.0        1
     196.920        4.242      1.0        1
     146.903        4.097      1.0        1
      96.886        3.955      1.0        1
      46.870        3.815      1.0        1
     356.853        3.676      1.0        1
     306.836        3.540      1.0        1
     256.820        3.406      1.0        1
     206.803        3.274      1.0        1
     156.786        3.143      1.0        1
     106.770        3.015      1.0        1
      56.753        2.889      1.0        1
       6.736        2.764      1.0        1
     316.720        2.642      1.0        1
     266.703        2.522      1.0        1
     216.686        2.404      1.0        1
     166.670        2.288      1.0        1
     116.653        2.173      1.0        1
      66.636        2.061      1.0        1
      16.619        1.951      1.0        1
     326.603        1.843      1.0        1
     276.586        1.737      1.0        1
     226.569        1.632      1.0        1
     176.553        1.530      1.0        1
     126.536        1.430      1.0        1
      76.519        1.332      1.0        1
      26.502        1.236      1.0        1
     336.486        1.142      1.0        1
     286.469        1.050      1.0        1
     236.452        0.960      1.0        1
     186.436        0.872      1.0        1
     136.419        0.786      1.0        1
      86.402        0.702      1.0        1
      36.386        0.620      1.0        1
     346.369        0.540      1.0        1
     296.352        0.462      1.0        1
     246.335        0.386      1.0        1
     196.319        0.312      1.0        1
     146.302        0.240      1.0        1
      96.285        0.171      1.0        1
      46.269        0.103      1.0        1
     356.252        0.037      1.0        1
     306.235        0.000      1.0        1
     256.218        0.000      1.0        1
     206.202        0.000      1.0        1
     156.185        0.000      1.0        1
     106.168        0.000      1.0        1
      56.152        0.000      1.0        1
       6.135        0.000      1.0        1
     316.118        0.000      1.0        1
     266.101        0.000      1.0        1
     216.085        0.000      1.0        0
     166.068        0.000      1.0        0
     116.051        0.000      1.0        0
      66.035        0.000      1.0        0
      16.018        0.000      1.0        0
     326.001        0.000      1.0        0
     275.984        0.000      1.0        0
     225.968        0.000      1.0        0
     175.951        0.000      1.0        0
     125.934        0.000      1.0        0
      75.918        0.000      1.0        0
      25.901        0.000      1.0        0
     335.884        0.000      1.0        0
     285.867        0.000      1.0        0
     235.851        0.000      1.0        0
     185.834        0.000      1.0        0
     135.817        0.000      1.0        0
      85.801        0.000      1.0        0
      35.784        0.000      1.0        0
     345.767        0.000      1.0        0
     295.750        0.000      1.0        0
     245.734        0.000      1.0        0
       0.000        0.000      1.0        0
