# Pbox   1998.75  44 4095  0.0     0    1.0000 5.49245     6
# VJ4.2  pw (us)  pwr  pwrf  dres  dmf  dcyc   B1max (kHz)  Stype
# ---------------------------------------------------------------
# Pxsim 0.0019988 5430.5734 0.000 208330.2 0.0000000 0.0000000 0.00
# data: pw (s) B1max (Hz) status sw (Hz) T1 (s)   T2 (s) RDC (Hz)
# ---------------------------------------------------------------
# Pbox.inp data :
# ~~~~~~~~~~~~~~~~~~~~~~~~~~~Waves~~~~~~~~~~~~~~~~~~~~~~~~~~~~~~~~~~
#   shape   bw(/pw)   ofs  st  ph  fla  trev  d1  d2   d0   wrp  php
# ~~~~~~~~~~~~~~~~~~~~~~~~~~~~~~~~~~~~~~~~~~~~~~~~~~~~~~~~~~~~~~~~~~
# { wurst2i 34700/0.002 }
#
# type      = r          mod       = n          dres      = n         
# steps     = n          stepsize  = n          attn      = i         
# refofs    = n          wrap      = n          sfrq      = n         
# sucyc     = d          reps      = 2          header    = y         
# bscor     = n          pad1      = n          pad2      = n         
# bsim      = n          T1        = n          T2        = n         
# rdc       = n          dcyc      = n          sw        = n         
#
# RF Calibration Data :  ref_pwr   = 57         ref_pw90  = 10.19
# ~~~~~~~~~~~~~~~~~~~~~
###
# ------------------- Shape data ------------------
# pwtot      = 0.0019988 (total pw, s)
# power      = 44 (power level, dB)
# pwrf       = 4095 (fine power)
# B1max      = 5.4924 (B1max, kHz)
# B1rms      = 3.3228 (B1[RMS], kHz)
# nptot      = 615 (total number of steps)
# stepsize   = 3.25 (length of a single step, us)
# maxamp     = 1012.5 (max amplitude)
# ------------------------------------------------- 
#      phase      amplitude   length     gate 
# ------------------------------------------------- 
        0.00      1023.00      0.0        0
       0.000        0.000      1.0        0
     249.740        0.000      1.0        0
     270.085        0.000      1.0        0
     290.430        0.000      1.0        0
     310.775        0.000      1.0        0
     331.121        0.000      1.0        1
     351.466        0.000      1.0        1
      11.811        0.298      1.0        1
      32.157        0.695      1.0        1
      52.502        1.145      1.0        1
      72.847        1.648      1.0        1
      93.192        2.204      1.0        1
     113.538        2.812      1.0        1
     133.883        3.473      1.0        1
     154.228        4.186      1.0        1
     174.573        4.952      1.0        1
     194.919        5.770      1.0        1
     215.264        6.641      1.0        1
     235.609        7.564      1.0        1
     255.954        8.539      1.0        1
     276.300        9.565      1.0        1
     296.645       10.644      1.0        1
     316.990       11.775      1.0        1
     337.335       12.957      1.0        1
     357.680       14.191      1.0        1
      18.025       15.476      1.0        1
      38.370       16.813      1.0        1
      58.715       18.200      1.0        1
      79.060       19.639      1.0        1
      99.405       21.128      1.0        1
     119.750       22.669      1.0        1
     140.094       24.259      1.0        1
     160.439       25.900      1.0        1
     180.783       27.592      1.0        1
     201.128       29.333      1.0        1
     221.472       31.124      1.0        1
     241.816       32.965      1.0        1
     262.159       34.855      1.0        1
     282.503       36.795      1.0        1
     302.846       38.783      1.0        1
     323.189       40.821      1.0        1
     343.532       42.907      1.0        1
       3.874       45.041      1.0        1
      24.216       47.224      1.0        1
      44.558       49.454      1.0        1
      64.899       51.733      1.0        1
      85.240       54.058      1.0        1
     105.580       56.432      1.0        1
     125.919       58.852      1.0        1
     146.258       61.318      1.0        1
     166.597       63.832      1.0        1
     186.934       66.391      1.0        1
     207.271       68.997      1.0        1
     227.607       71.648      1.0        1
     247.942       74.344      1.0        1
     268.276       77.086      1.0        1
     288.609       79.873      1.0        1
     308.941       82.704      1.0        1
     329.271       85.579      1.0        1
     349.601       88.498      1.0        1
       9.929       91.461      1.0        1
      30.255       94.467      1.0        1
      50.580       97.516      1.0        1
      70.904      100.608      1.0        1
      91.225      103.743      1.0        1
     111.545      106.919      1.0        1
     131.862      110.137      1.0        1
     152.178      113.396      1.0        1
     172.491      116.697      1.0        1
     192.802      120.038      1.0        1
     213.110      123.419      1.0        1
     233.416      126.841      1.0        1
     253.718      130.302      1.0        1
     274.018      133.802      1.0        1
     294.315      137.342      1.0        1
     314.608      140.919      1.0        1
     334.898      144.535      1.0        1
     355.185      148.189      1.0        1
      15.467      151.880      1.0        1
      35.745      155.608      1.0        1
      56.020      159.373      1.0        1
      76.289      163.174      1.0        1
      96.554      167.010      1.0        1
     116.815      170.883      1.0        1
     137.070      174.790      1.0        1
     157.320      178.731      1.0        1
     177.564      182.707      1.0        1
     197.802      186.717      1.0        1
     218.035      190.760      1.0        1
     238.261      194.836      1.0        1
     258.480      198.945      1.0        1
     278.692      203.085      1.0        1
     298.898      207.257      1.0        1
     319.096      211.461      1.0        1
     339.286      215.695      1.0        1
     359.468      219.960      1.0        1
      19.641      224.254      1.0        1
      39.806      228.578      1.0        1
      59.962      232.931      1.0        1
      80.108      237.312      1.0        1
     100.244      241.721      1.0        1
     120.371      246.158      1.0        1
     140.486      250.622      1.0        1
     160.591      255.113      1.0        1
     180.685      259.630      1.0        1
     200.767      264.172      1.0        1
     220.836      268.740      1.0        1
     240.894      273.333      1.0        1
     260.938      277.950      1.0        1
     280.969      282.591      1.0        1
     300.986      287.255      1.0        1
     320.988      291.942      1.0        1
     340.976      296.651      1.0        1
       0.948      301.382      1.0        1
      20.905      306.134      1.0        1
      40.846      310.907      1.0        1
      60.769      315.701      1.0        1
      80.676      320.515      1.0        1
     100.564      325.347      1.0        1
     120.435      330.199      1.0        1
     140.286      335.069      1.0        1
     160.118      339.957      1.0        1
     179.930      344.862      1.0        1
     199.721      349.784      1.0        1
     219.491      354.722      1.0        1
     239.239      359.676      1.0        1
     258.965      364.645      1.0        1
     278.668      369.629      1.0        1
     298.347      374.627      1.0        1
     318.001      379.639      1.0        1
     337.631      384.663      1.0        1
     357.235      389.701      1.0        1
      16.813      394.751      1.0        1
      36.364      399.812      1.0        1
      55.887      404.884      1.0        1
      75.381      409.967      1.0        1
      94.847      415.059      1.0        1
     114.282      420.162      1.0        1
     133.688      425.273      1.0        1
     153.061      430.392      1.0        1
     172.403      435.519      1.0        1
     191.712      440.654      1.0        1
     210.987      445.795      1.0        1
     230.228      450.943      1.0        1
     249.433      456.096      1.0        1
     268.603      461.255      1.0        1
     287.736      466.418      1.0        1
     306.831      471.585      1.0        1
     325.887      476.755      1.0        1
     344.905      481.929      1.0        1
       3.882      487.105      1.0        1
      22.817      492.283      1.0        1
      41.711      497.462      1.0        1
      60.563      502.642      1.0        1
      79.370      507.822      1.0        1
      98.133      513.003      1.0        1
     116.850      518.182      1.0        1
     135.521      523.360      1.0        1
     154.144      528.536      1.0        1
     172.719      533.709      1.0        1
     191.245      538.880      1.0        1
     209.720      544.047      1.0        1
     228.145      549.210      1.0        1
     246.517      554.368      1.0        1
     264.835      559.522      1.0        1
     283.100      564.669      1.0        1
     301.310      569.811      1.0        1
     319.463      574.945      1.0        1
     337.559      580.072      1.0        1
     355.597      585.192      1.0        1
      13.576      590.303      1.0        1
      31.494      595.405      1.0        1
      49.352      600.498      1.0        1
      67.146      605.581      1.0        1
      84.878      610.653      1.0        1
     102.545      615.714      1.0        1
     120.146      620.764      1.0        1
     137.680      625.801      1.0        1
     155.147      630.826      1.0        1
     172.545      635.838      1.0        1
     189.874      640.836      1.0        1
     207.131      645.820      1.0        1
     224.316      650.789      1.0        1
     241.427      655.743      1.0        1
     258.465      660.681      1.0        1
     275.427      665.603      1.0        1
     292.312      670.508      1.0        1
     309.120      675.396      1.0        1
     325.848      680.266      1.0        1
     342.497      685.117      1.0        1
     359.064      689.950      1.0        1
      15.550      694.763      1.0        1
      31.951      699.557      1.0        1
      48.269      704.330      1.0        1
      64.500      709.083      1.0        1
      80.644      713.814      1.0        1
      96.701      718.523      1.0        1
     112.668      723.210      1.0        1
     128.545      727.874      1.0        1
     144.330      732.515      1.0        1
     160.022      737.132      1.0        1
     175.620      741.724      1.0        1
     191.124      746.292      1.0        1
     206.531      750.835      1.0        1
     221.840      755.352      1.0        1
     237.051      759.842      1.0        1
     252.163      764.306      1.0        1
     267.173      768.743      1.0        1
     282.081      773.153      1.0        1
     296.886      777.534      1.0        1
     311.586      781.887      1.0        1
     326.180      786.211      1.0        1
     340.668      790.505      1.0        1
     355.048      794.769      1.0        1
       9.318      799.004      1.0        1
      23.479      803.207      1.0        1
      37.527      807.379      1.0        1
      51.463      811.520      1.0        1
      65.286      815.628      1.0        1
      78.993      819.704      1.0        1
      92.584      823.747      1.0        1
     106.058      827.757      1.0        1
     119.413      831.733      1.0        1
     132.649      835.675      1.0        1
     145.765      839.582      1.0        1
     158.758      843.454      1.0        1
     171.629      847.291      1.0        1
     184.375      851.092      1.0        1
     196.996      854.856      1.0        1
     209.491      858.585      1.0        1
     221.859      862.276      1.0        1
     234.098      865.929      1.0        1
     246.208      869.545      1.0        1
     258.186      873.123      1.0        1
     270.034      876.662      1.0        1
     281.748      880.163      1.0        1
     293.329      883.624      1.0        1
     304.774      887.045      1.0        1
     316.084      890.427      1.0        1
     327.256      893.768      1.0        1
     338.291      897.068      1.0        1
     349.187      900.328      1.0        1
     359.942      903.546      1.0        1
      10.557      906.722      1.0        1
      21.029      909.856      1.0        1
      31.359      912.948      1.0        1
      41.544      915.997      1.0        1
      51.584      919.004      1.0        1
      61.479      921.966      1.0        1
      71.227      924.886      1.0        1
      80.826      927.761      1.0        1
      90.278      930.592      1.0        1
      99.579      933.378      1.0        1
     108.730      936.120      1.0        1
     117.730      938.817      1.0        1
     126.577      941.468      1.0        1
     135.271      944.073      1.0        1
     143.812      946.633      1.0        1
     152.197      949.146      1.0        1
     160.427      951.613      1.0        1
     168.500      954.033      1.0        1
     176.416      956.406      1.0        1
     184.174      958.732      1.0        1
     191.774      961.010      1.0        1
     199.213      963.241      1.0        1
     206.493      965.423      1.0        1
     213.611      967.558      1.0        1
     220.568      969.644      1.0        1
     227.362      971.681      1.0        1
     233.993      973.670      1.0        1
     240.461      975.609      1.0        1
     246.764      977.500      1.0        1
     252.902      979.340      1.0        1
     258.874      981.132      1.0        1
     264.680      982.873      1.0        1
     270.319      984.564      1.0        1
     275.791      986.205      1.0        1
     281.094      987.796      1.0        1
     286.229      989.336      1.0        1
     291.195      990.826      1.0        1
     295.992      992.264      1.0        1
     300.618      993.652      1.0        1
     305.074      994.988      1.0        1
     309.358      996.274      1.0        1
     313.471      997.508      1.0        1
     317.413      998.690      1.0        1
     321.182      999.820      1.0        1
     324.778     1000.899      1.0        1
     328.202     1001.926      1.0        1
     331.452     1002.901      1.0        1
     334.528     1003.824      1.0        1
     337.430     1004.694      1.0        1
     340.158     1005.512      1.0        1
     342.711     1006.278      1.0        1
     345.089     1006.992      1.0        1
     347.292     1007.652      1.0        1
     349.320     1008.261      1.0        1
     351.172     1008.816      1.0        1
     352.848     1009.319      1.0        1
     354.348     1009.769      1.0        1
     355.672     1010.166      1.0        1
     356.820     1010.511      1.0        1
     357.791     1010.802      1.0        1
     358.586     1011.040      1.0        1
     359.205     1011.226      1.0        1
     359.647     1011.359      1.0        1
     359.912     1011.438      1.0        1
       0.000     1011.465      1.0        1
     359.912     1011.438      1.0        1
     359.647     1011.359      1.0        1
     359.205     1011.226      1.0        1
     358.586     1011.040      1.0        1
     357.791     1010.802      1.0        1
     356.820     1010.511      1.0        1
     355.672     1010.166      1.0        1
     354.348     1009.769      1.0        1
     352.848     1009.319      1.0        1
     351.172     1008.816      1.0        1
     349.320     1008.261      1.0        1
     347.292     1007.652      1.0        1
     345.089     1006.992      1.0        1
     342.711     1006.278      1.0        1
     340.158     1005.512      1.0        1
     337.430     1004.694      1.0        1
     334.528     1003.824      1.0        1
     331.452     1002.901      1.0        1
     328.202     1001.926      1.0        1
     324.778     1000.899      1.0        1
     321.182      999.820      1.0        1
     317.413      998.690      1.0        1
     313.471      997.508      1.0        1
     309.358      996.274      1.0        1
     305.074      994.988      1.0        1
     300.618      993.652      1.0        1
     295.992      992.264      1.0        1
     291.195      990.826      1.0        1
     286.229      989.336      1.0        1
     281.094      987.796      1.0        1
     275.791      986.205      1.0        1
     270.319      984.564      1.0        1
     264.680      982.873      1.0        1
     258.874      981.132      1.0        1
     252.902      979.340      1.0        1
     246.764      977.500      1.0        1
     240.461      975.609      1.0        1
     233.993      973.670      1.0        1
     227.362      971.681      1.0        1
     220.568      969.644      1.0        1
     213.611      967.558      1.0        1
     206.493      965.423      1.0        1
     199.213      963.241      1.0        1
     191.774      961.010      1.0        1
     184.174      958.732      1.0        1
     176.416      956.406      1.0        1
     168.500      954.033      1.0        1
     160.427      951.613      1.0        1
     152.197      949.146      1.0        1
     143.812      946.633      1.0        1
     135.271      944.073      1.0        1
     126.577      941.468      1.0        1
     117.730      938.817      1.0        1
     108.730      936.120      1.0        1
      99.579      933.378      1.0        1
      90.278      930.592      1.0        1
      80.826      927.761      1.0        1
      71.227      924.886      1.0        1
      61.479      921.966      1.0        1
      51.584      919.004      1.0        1
      41.544      915.997      1.0        1
      31.359      912.948      1.0        1
      21.029      909.856      1.0        1
      10.557      906.722      1.0        1
     359.942      903.546      1.0        1
     349.187      900.328      1.0        1
     338.291      897.068      1.0        1
     327.256      893.768      1.0        1
     316.084      890.427      1.0        1
     304.774      887.045      1.0        1
     293.329      883.624      1.0        1
     281.748      880.163      1.0        1
     270.034      876.662      1.0        1
     258.186      873.123      1.0        1
     246.208      869.545      1.0        1
     234.098      865.929      1.0        1
     221.859      862.276      1.0        1
     209.491      858.585      1.0        1
     196.996      854.856      1.0        1
     184.375      851.092      1.0        1
     171.629      847.291      1.0        1
     158.758      843.454      1.0        1
     145.765      839.582      1.0        1
     132.649      835.675      1.0        1
     119.413      831.733      1.0        1
     106.058      827.757      1.0        1
      92.584      823.747      1.0        1
      78.993      819.704      1.0        1
      65.286      815.628      1.0        1
      51.463      811.520      1.0        1
      37.527      807.379      1.0        1
      23.479      803.207      1.0        1
       9.318      799.004      1.0        1
     355.048      794.769      1.0        1
     340.668      790.505      1.0        1
     326.180      786.211      1.0        1
     311.586      781.887      1.0        1
     296.886      777.534      1.0        1
     282.081      773.153      1.0        1
     267.173      768.743      1.0        1
     252.163      764.306      1.0        1
     237.051      759.842      1.0        1
     221.840      755.352      1.0        1
     206.531      750.835      1.0        1
     191.124      746.292      1.0        1
     175.620      741.724      1.0        1
     160.022      737.132      1.0        1
     144.330      732.515      1.0        1
     128.545      727.874      1.0        1
     112.668      723.210      1.0        1
      96.701      718.523      1.0        1
      80.644      713.814      1.0        1
      64.500      709.083      1.0        1
      48.269      704.330      1.0        1
      31.951      699.557      1.0        1
      15.550      694.763      1.0        1
     359.064      689.950      1.0        1
     342.497      685.117      1.0        1
     325.848      680.266      1.0        1
     309.120      675.396      1.0        1
     292.312      670.508      1.0        1
     275.427      665.603      1.0        1
     258.465      660.681      1.0        1
     241.427      655.743      1.0        1
     224.316      650.789      1.0        1
     207.131      645.820      1.0        1
     189.874      640.836      1.0        1
     172.545      635.838      1.0        1
     155.147      630.826      1.0        1
     137.680      625.801      1.0        1
     120.146      620.764      1.0        1
     102.545      615.714      1.0        1
      84.878      610.653      1.0        1
      67.146      605.581      1.0        1
      49.352      600.498      1.0        1
      31.494      595.405      1.0        1
      13.576      590.303      1.0        1
     355.597      585.192      1.0        1
     337.559      580.072      1.0        1
     319.463      574.945      1.0        1
     301.310      569.811      1.0        1
     283.100      564.669      1.0        1
     264.835      559.522      1.0        1
     246.517      554.368      1.0        1
     228.145      549.210      1.0        1
     209.720      544.047      1.0        1
     191.245      538.880      1.0        1
     172.719      533.709      1.0        1
     154.144      528.536      1.0        1
     135.521      523.360      1.0        1
     116.850      518.182      1.0        1
      98.133      513.003      1.0        1
      79.370      507.822      1.0        1
      60.563      502.642      1.0        1
      41.711      497.462      1.0        1
      22.817      492.283      1.0        1
       3.882      487.105      1.0        1
     344.905      481.929      1.0        1
     325.887      476.755      1.0        1
     306.831      471.585      1.0        1
     287.736      466.418      1.0        1
     268.603      461.255      1.0        1
     249.433      456.096      1.0        1
     230.228      450.943      1.0        1
     210.987      445.795      1.0        1
     191.712      440.654      1.0        1
     172.403      435.519      1.0        1
     153.061      430.392      1.0        1
     133.688      425.273      1.0        1
     114.282      420.162      1.0        1
      94.847      415.059      1.0        1
      75.381      409.967      1.0        1
      55.887      404.884      1.0        1
      36.364      399.812      1.0        1
      16.813      394.751      1.0        1
     357.235      389.701      1.0        1
     337.631      384.663      1.0        1
     318.001      379.639      1.0        1
     298.347      374.627      1.0        1
     278.668      369.629      1.0        1
     258.965      364.645      1.0        1
     239.239      359.676      1.0        1
     219.491      354.722      1.0        1
     199.721      349.784      1.0        1
     179.930      344.862      1.0        1
     160.118      339.957      1.0        1
     140.286      335.069      1.0        1
     120.435      330.199      1.0        1
     100.564      325.347      1.0        1
      80.676      320.515      1.0        1
      60.769      315.701      1.0        1
      40.846      310.907      1.0        1
      20.905      306.134      1.0        1
       0.948      301.382      1.0        1
     340.976      296.651      1.0        1
     320.988      291.942      1.0        1
     300.986      287.255      1.0        1
     280.969      282.591      1.0        1
     260.938      277.950      1.0        1
     240.894      273.333      1.0        1
     220.836      268.740      1.0        1
     200.767      264.172      1.0        1
     180.685      259.630      1.0        1
     160.591      255.113      1.0        1
     140.486      250.622      1.0        1
     120.371      246.158      1.0        1
     100.244      241.721      1.0        1
      80.108      237.312      1.0        1
      59.962      232.931      1.0        1
      39.806      228.578      1.0        1
      19.641      224.254      1.0        1
     359.468      219.960      1.0        1
     339.286      215.695      1.0        1
     319.096      211.461      1.0        1
     298.898      207.257      1.0        1
     278.692      203.085      1.0        1
     258.480      198.945      1.0        1
     238.261      194.836      1.0        1
     218.035      190.760      1.0        1
     197.802      186.717      1.0        1
     177.564      182.707      1.0        1
     157.320      178.731      1.0        1
     137.070      174.790      1.0        1
     116.815      170.883      1.0        1
      96.554      167.010      1.0        1
      76.289      163.174      1.0        1
      56.020      159.373      1.0        1
      35.745      155.608      1.0        1
      15.467      151.880      1.0        1
     355.185      148.189      1.0        1
     334.898      144.535      1.0        1
     314.608      140.919      1.0        1
     294.315      137.342      1.0        1
     274.018      133.802      1.0        1
     253.718      130.302      1.0        1
     233.416      126.841      1.0        1
     213.110      123.419      1.0        1
     192.802      120.038      1.0        1
     172.491      116.697      1.0        1
     152.178      113.396      1.0        1
     131.862      110.137      1.0        1
     111.545      106.919      1.0        1
      91.225      103.743      1.0        1
      70.904      100.608      1.0        1
      50.580       97.516      1.0        1
      30.255       94.467      1.0        1
       9.929       91.461      1.0        1
     349.601       88.498      1.0        1
     329.271       85.579      1.0        1
     308.941       82.704      1.0        1
     288.609       79.873      1.0        1
     268.276       77.086      1.0        1
     247.942       74.344      1.0        1
     227.607       71.648      1.0        1
     207.271       68.997      1.0        1
     186.934       66.391      1.0        1
     166.597       63.832      1.0        1
     146.258       61.318      1.0        1
     125.919       58.852      1.0        1
     105.580       56.432      1.0        1
      85.240       54.058      1.0        1
      64.899       51.733      1.0        1
      44.558       49.454      1.0        1
      24.216       47.224      1.0        1
       3.874       45.041      1.0        1
     343.532       42.907      1.0        1
     323.189       40.821      1.0        1
     302.846       38.783      1.0        1
     282.503       36.795      1.0        1
     262.159       34.855      1.0        1
     241.816       32.965      1.0        1
     221.472       31.124      1.0        1
     201.128       29.333      1.0        1
     180.783       27.592      1.0        1
     160.439       25.900      1.0        1
     140.094       24.259      1.0        1
     119.750       22.669      1.0        1
      99.405       21.128      1.0        1
      79.060       19.639      1.0        1
      58.715       18.200      1.0        1
      38.370       16.813      1.0        1
      18.025       15.476      1.0        1
     357.680       14.191      1.0        1
     337.335       12.957      1.0        1
     316.990       11.775      1.0        1
     296.645       10.644      1.0        1
     276.300        9.565      1.0        1
     255.954        8.539      1.0        1
     235.609        7.564      1.0        1
     215.264        6.641      1.0        1
     194.919        5.770      1.0        1
     174.573        4.952      1.0        1
     154.228        4.186      1.0        1
     133.883        3.473      1.0        1
     113.538        2.812      1.0        1
      93.192        2.204      1.0        1
      72.847        1.648      1.0        1
      52.502        1.145      1.0        1
      32.157        0.695      1.0        1
      11.811        0.298      1.0        1
     351.466        0.000      1.0        1
     331.121        0.000      1.0        1
     310.775        0.000      1.0        0
     290.430        0.000      1.0        0
     270.085        0.000      1.0        0
     249.740        0.000      1.0        0
       0.000        0.000      1.0        0
