# Pbox  60006.30  -1 4095  0.0     0    1.0000 0.02684     4
# VJ4.2  pw (us)  pwr  pwrf  dres  dmf  dcyc   B1max (kHz)  Stype
# ---------------------------------------------------------------
# Pxsim 0.0600063 22.8879 0.500 47995.0 0.0000000 0.0000000 0.00
# data: pw (s) B1max (Hz) status sw (Hz) T1 (s)   T2 (s) RDC (Hz)
# ---------------------------------------------------------------
# Pbox.inp data :
# ~~~~~~~~~~~~~~~~~~~~~~~~~~~Waves~~~~~~~~~~~~~~~~~~~~~~~~~~~~~~~~~~
#   shape   bw(/pw)   ofs  st  ph  fla  trev  d1  d2   d0   wrp  php
# ~~~~~~~~~~~~~~~~~~~~~~~~~~~~~~~~~~~~~~~~~~~~~~~~~~~~~~~~~~~~~~~~~~
# { chirp 8000/30m 0 0.5 a2 5 }
# { chirp -8000/30m 0 0.5 a2 5 }
#
# type      = r          mod       = n          dres      = n         
# steps     = n          stepsize  = n          attn      = i         
# refofs    = n          wrap      = n          sfrq      = n         
# sucyc     = d          reps      = 2          header    = y         
# bscor     = n          pad1      = n          pad2      = n         
# bsim      = n          T1        = n          T2        = n         
# rdc       = n          dcyc      = n          sw        = n         
#
# RF Calibration Data :  ref_pwr   = 60         ref_pw90  = 8.30
# ~~~~~~~~~~~~~~~~~~~~~
###
# ------------------- Shape data ------------------
# pwtot      = 0.0600063 (total pw, s)
# power      = -1 (power level, dB)
# pwrf       = 4095 (fine power)
# B1max      = 0.0268 (B1max, kHz)
# B1rms      = 0.0164 (B1[RMS], kHz)
# nptot      = 2878 (total number of steps)
# stepsize   = 20.85 (length of a single step, us)
# maxamp     = 873.1 (max amplitude)
# ------------------------------------------------- 
#      phase      amplitude   length     gate 
# ------------------------------------------------- 
        0.00      1023.00      0.0        0
      -0.000      872.061      1.0        1
       0.000      754.934      1.0        1
      -0.000      435.532      1.0        1
      -0.000        0.000      1.0        1
     180.000      433.320      1.0        1
     180.000      752.692      1.0        1
     180.000      872.027      1.0        1
     180.000      760.605      1.0        1
     180.000      448.702      1.0        1
     180.000       19.061      1.0        1
      -0.000      413.285      1.0        1
      -0.000      738.841      1.0        1
      -0.000      871.224      1.0        1
       0.000      776.821      1.0        1
      -0.000      481.009      1.0        1
       0.000       61.037      1.0        1
     180.000      372.377      1.0        1
     180.000      711.288      1.0        1
     180.000      867.250      1.0        1
     180.000      801.154      1.0        1
     180.000      530.752      1.0        1
     180.000      125.587      1.0        1
       0.000      309.123      1.0        1
       0.000      666.903      1.0        1
       0.000      855.927      1.0        1
       0.000      829.396      1.0        1
      -0.000      594.846      1.0        1
      -0.000      211.738      1.0        1
     180.000      221.865      1.0        1
     180.000      601.525      1.0        1
     180.000      831.421      1.0        1
     180.000      855.383      1.0        1
     180.000      668.366      1.0        1
     180.000      317.187      1.0        1
      -0.000      109.455      1.0        1
      -0.000      510.550      1.0        1
      -0.000      786.532      1.0        1
      -0.000      870.909      1.0        1
       0.000      744.055      1.0        1
      -0.000      437.488      1.0        1
       0.000       25.771      1.0        1
     180.000      389.817      1.0        1
     180.000      713.295      1.0        1
     180.000      865.858      1.0        1
     180.000      811.922      1.0        1
     180.000      565.165      1.0        1
     180.000      184.791      1.0        1
       0.000      236.895      1.0        1
       0.000      604.043      1.0        1
       0.000      828.784      1.0        1
      -0.000      859.170      1.0        1
      -0.000      688.950      1.0        1
       0.000      358.561      1.0        1
     180.000       52.720      1.0        1
     180.000      453.015      1.0        1
     180.000      748.132      1.0        1
     180.000      870.717      1.0        1
     180.000      793.436      1.0        1
     180.000      534.808      1.0        1
     180.000      154.520      1.0        1
      -0.000      258.549      1.0        1
      -0.000      614.281      1.0        1
      -0.000      830.642      1.0        1
      -0.000      859.551      1.0        1
      -0.000      695.344      1.0        1
      -0.000      375.601      1.0        1
     180.000       25.680      1.0        1
     180.000      422.460      1.0        1
     180.000      724.803      1.0        1
     180.000      866.302      1.0        1
     180.000      816.487      1.0        1
     180.000      587.152      1.0        1
     180.000      229.325      1.0        1
       0.000      176.285      1.0        1
       0.000      544.717      1.0        1
       0.000      794.180      1.0        1
       0.000      871.228      1.0        1
      -0.000      760.010      1.0        1
       0.000      485.291      1.0        1
      -0.000      106.708      1.0        1
     180.000      292.350      1.0        1
     180.000      630.317      1.0        1
     180.000      833.681      1.0        1
     180.000      859.979      1.0        1
     180.000      704.463      1.0        1
     180.000      400.691      1.0        1
     180.000       13.078      1.0        1
      -0.000      374.912      1.0        1
       0.000      685.942      1.0        1
      -0.000      853.714      1.0        1
       0.000      844.116      1.0        1
       0.000      659.944      1.0        1
      -0.000      339.929      1.0        1
     180.000       47.604      1.0        1
     180.000      426.611      1.0        1
     180.000      717.818      1.0        1
     180.000      862.406      1.0        1
     180.000      831.741      1.0        1
     180.000      632.833      1.0        1
     180.000      306.538      1.0        1
      -0.000       79.026      1.0        1
       0.000      449.988      1.0        1
      -0.000      730.401      1.0        1
       0.000      864.909      1.0        1
      -0.000      827.528      1.0        1
       0.000      626.453      1.0        1
      -0.000      302.069      1.0        1
     180.000       79.338      1.0        1
     180.000      446.435      1.0        1
     180.000      725.669      1.0        1
     180.000      863.145      1.0        1
     180.000      832.883      1.0        1
     180.000      641.530      1.0        1
     180.000      326.710      1.0        1
       0.000       48.541      1.0        1
       0.000      415.730      1.0        1
      -0.000      702.862      1.0        1
      -0.000      855.729      1.0        1
      -0.000      846.006      1.0        1
      -0.000      676.313      1.0        1
      -0.000      379.369      1.0        1
       0.000       11.513      1.0        1
     180.000      356.108      1.0        1
     180.000      658.579      1.0        1
     180.000      838.024      1.0        1
     180.000      861.810      1.0        1
     180.000      726.303      1.0        1
     180.000      457.213      1.0        1
     180.000      104.533      1.0        1
      -0.000      264.874      1.0        1
      -0.000      587.266      1.0        1
       0.000      802.358      1.0        1
      -0.000      871.762      1.0        1
       0.000      783.683      1.0        1
       0.000      554.729      1.0        1
      -0.000      226.606      1.0        1
     180.000      139.618      1.0        1
     180.000      482.233      1.0        1
     180.000      738.618      1.0        1
     180.000      863.897      1.0        1
     180.000      836.662      1.0        1
     180.000      662.457      1.0        1
     180.000      372.492      1.0        1
     180.000       17.895      1.0        1
       0.000      337.407      1.0        1
       0.000      635.538      1.0        1
      -0.000      823.359      1.0        1
       0.000      869.134      1.0        1
      -0.000      765.739      1.0        1
       0.000      531.589      1.0        1
      -0.000      207.197      1.0        1
     180.000      149.965      1.0        1
     180.000      483.019      1.0        1
     180.000      734.010      1.0        1
     180.000      861.233      1.0        1
     180.000      844.048      1.0        1
     180.000      686.063      1.0        1
     180.000      414.242      1.0        1
     180.000       74.159      1.0        1
       0.000      275.746      1.0        1
       0.000      581.582      1.0        1
      -0.000      791.504      1.0        1
       0.000      871.756      1.0        1
       0.000      809.966      1.0        1
      -0.000      616.888      1.0        1
      -0.000      324.383      1.0        1
     180.000       17.969      1.0        1
     180.000      358.692      1.0        1
     180.000      641.379      1.0        1
     180.000      821.342      1.0        1
     180.000      870.583      1.0        1
     180.000      782.013      1.0        1
     180.000      570.309      1.0        1
     180.000      269.343      1.0        1
       0.000       71.363      1.0        1
      -0.000      402.202      1.0        1
       0.000      669.893      1.0        1
       0.000      833.380      1.0        1
       0.000      868.032      1.0        1
      -0.000      769.224      1.0        1
      -0.000      552.787      1.0        1
      -0.000      252.342      1.0        1
     180.000       84.039      1.0        1
     180.000      408.958      1.0        1
     180.000      671.517      1.0        1
     180.000      832.625      1.0        1
     180.000      868.732      1.0        1
     180.000      775.139      1.0        1
     180.000      566.456      1.0        1
     180.000      274.191      1.0        1
       0.000       56.114      1.0        1
       0.000      379.436      1.0        1
      -0.000      646.517      1.0        1
      -0.000      818.739      1.0        1
       0.000      871.616      1.0        1
       0.000      798.161      1.0        1
      -0.000      609.664      1.0        1
      -0.000      333.833      1.0        1
      -0.000       10.611      1.0        1
     180.000      311.676      1.0        1
     180.000      590.984      1.0        1
     180.000      786.066      1.0        1
     180.000      869.911      1.0        1
     180.000      831.380      1.0        1
     180.000      676.550      1.0        1
     180.000      427.647      1.0        1
     180.000      119.737      1.0        1
       0.000      202.288      1.0        1
      -0.000      497.724      1.0        1
       0.000      724.216      1.0        1
      -0.000      851.216      1.0        1
      -0.000      862.012      1.0        1
      -0.000      755.808      1.0        1
      -0.000      547.619      1.0        1
       0.000      266.036      1.0        1
     180.000       48.790      1.0        1
     180.000      358.373      1.0        1
     180.000      619.600      1.0        1
     180.000      798.163      1.0        1
     180.000      870.995      1.0        1
     180.000      829.145      1.0        1
     180.000      678.760      1.0        1
     180.000      440.077      1.0        1
     180.000      144.601      1.0        1
      -0.000      167.131      1.0        1
       0.000      458.608      1.0        1
      -0.000      690.572      1.0        1
       0.000      833.744      1.0        1
       0.000      870.433      1.0        1
       0.000      796.624      1.0        1
       0.000      622.292      1.0        1
      -0.000      369.953      1.0        1
      -0.000       71.669      1.0        1
     180.000      233.089      1.0        1
     180.000      510.175      1.0        1
     180.000      723.497      1.0        1
     180.000      847.163      1.0        1
     180.000      866.545      1.0        1
     180.000      779.908      1.0        1
     180.000      598.439      1.0        1
     180.000      344.704      1.0        1
     180.000       49.765      1.0        1
       0.000      248.684      1.0        1
       0.000      518.650      1.0        1
      -0.000      726.148      1.0        1
      -0.000      846.934      1.0        1
       0.000      867.270      1.0        1
      -0.000      785.383      1.0        1
       0.000      611.505      1.0        1
       0.000      366.501      1.0        1
      -0.000       79.290      1.0        1
     180.000      214.624      1.0        1
     180.000      485.084      1.0        1
     180.000      699.213      1.0        1
     180.000      832.896      1.0        1
     180.000      871.428      1.0        1
     180.000      811.044      1.0        1
     180.000      659.184      1.0        1
     180.000      433.486      1.0        1
     180.000      159.665      1.0        1
       0.000      129.476      1.0        1
       0.000      405.539      1.0        1
       0.000      636.140      1.0        1
      -0.000      796.218      1.0        1
       0.000      868.703      1.0        1
      -0.000      846.260      1.0        1
       0.000      731.938      1.0        1
      -0.000      538.682      1.0        1
      -0.000      287.793      1.0        1
      -0.000        6.515      1.0        1
     180.000      272.962      1.0        1
     180.000      524.757      1.0        1
     180.000      720.451      1.0        1
     180.000      839.823      1.0        1
     180.000      870.868      1.0        1
     180.000      810.931      1.0        1
     180.000      666.838      1.0        1
     180.000      454.038      1.0        1
     180.000      194.886      1.0        1
      -0.000       81.763      1.0        1
       0.000      351.362      1.0        1
       0.000      584.603      1.0        1
      -0.000      758.157      1.0        1
      -0.000      854.965      1.0        1
       0.000      865.848      1.0        1
      -0.000      790.302      1.0        1
       0.000      636.409      1.0        1
      -0.000      419.901      1.0        1
       0.000      162.495      1.0        1
     180.000      108.334      1.0        1
     180.000      369.900      1.0        1
     180.000      594.912      1.0        1
     180.000      761.898      1.0        1
     180.000      855.214      1.0        1
     180.000      866.441      1.0        1
     180.000      795.078      1.0        1
     180.000      648.461      1.0        1
     180.000      440.938      1.0        1
     180.000      192.414      1.0        1
      -0.000       71.606      1.0        1
      -0.000      330.263      1.0        1
      -0.000      557.670      1.0        1
       0.000      733.101      1.0        1
      -0.000      840.839      1.0        1
      -0.000      871.533      1.0        1
       0.000      822.942      1.0        1
      -0.000      700.020      1.0        1
       0.000      514.351      1.0        1
      -0.000      283.002      1.0        1
       0.000       26.905      1.0        1
     180.000      229.059      1.0        1
     180.000      466.121      1.0        1
     180.000      661.622      1.0        1
     180.000      798.781      1.0        1
     180.000      866.099      1.0        1
     180.000      858.258      1.0        1
     180.000      776.481      1.0        1
     180.000      628.313      1.0        1
     180.000      426.870      1.0        1
     180.000      189.629      1.0        1
       0.000       61.121      1.0        1
      -0.000      308.042      1.0        1
      -0.000      528.540      1.0        1
       0.000      704.478      1.0        1
      -0.000      821.632      1.0        1
      -0.000      870.795      1.0        1
       0.000      848.448      1.0        1
       0.000      756.948      1.0        1
      -0.000      604.234      1.0        1
      -0.000      403.086      1.0        1
      -0.000      170.015      1.0        1
     180.000       74.127      1.0        1
     180.000      313.686      1.0        1
     180.000      527.776      1.0        1
     180.000      699.758      1.0        1
     180.000      816.498      1.0        1
     180.000      869.336      1.0        1
     180.000      854.672      1.0        1
     180.000      774.156      1.0        1
     180.000      634.466      1.0        1
     180.000      446.708      1.0        1
     180.000      225.495      1.0        1
      -0.000       10.229      1.0        1
       0.000      246.497      1.0        1
      -0.000      463.685      1.0        1
       0.000      645.819      1.0        1
       0.000      779.725      1.0        1
      -0.000      855.947      1.0        1
       0.000      869.373      1.0        1
       0.000      819.525      1.0        1
       0.000      710.511      1.0        1
      -0.000      550.643      1.0        1
       0.000      351.760      1.0        1
       0.000      128.322      1.0        1
     180.000      101.667      1.0        1
     180.000      325.815      1.0        1
     180.000      526.500      1.0        1
     180.000      689.947      1.0        1
     180.000      805.145      1.0        1
     180.000      864.560      1.0        1
     180.000      864.581      1.0        1
     180.000      805.694      1.0        1
     180.000      692.372      1.0        1
     180.000      532.694      1.0        1
     180.000      337.734      1.0        1
     180.000      120.766      1.0        1
       0.000      101.662      1.0        1
      -0.000      318.713      1.0        1
       0.000      514.240      1.0        1
      -0.000      675.696      1.0        1
      -0.000      792.918      1.0        1
      -0.000      858.736      1.0        1
       0.000      869.373      1.0        1
      -0.000      824.623      1.0        1
      -0.000      727.788      1.0        1
       0.000      585.405      1.0        1
      -0.000      406.769      1.0        1
      -0.000      203.299      1.0        1
     180.000       10.213      1.0        1
     180.000      224.418      1.0        1
     180.000      424.240      1.0        1
     180.000      597.667      1.0        1
     180.000      734.456      1.0        1
     180.000      826.717      1.0        1
     180.000      869.335      1.0        1
     180.000      860.219      1.0        1
     180.000      800.365      1.0        1
     180.000      693.731      1.0        1
     180.000      546.946      1.0        1
     180.000      368.872      1.0        1
     180.000      170.041      1.0        1
      -0.000       35.982      1.0        1
      -0.000      241.282      1.0        1
       0.000      432.275      1.0        1
      -0.000      598.358      1.0        1
      -0.000      730.482      1.0        1
       0.000      821.621      1.0        1
       0.000      867.124      1.0        1
       0.000      864.912      1.0        1
      -0.000      815.546      1.0        1
       0.000      722.135      1.0        1
       0.000      590.114      1.0        1
       0.000      426.902      1.0        1
       0.000      241.465      1.0        1
       0.000       43.805      1.0        1
     180.000      153.590      1.0        1
     180.000      344.305      1.0        1
     180.000      516.537      1.0        1
     180.000      661.594      1.0        1
     180.000      772.312      1.0        1
     180.000      843.388      1.0        1
     180.000      871.613      1.0        1
     180.000      855.981      1.0        1
     180.000      797.693      1.0        1
     180.000      700.049      1.0        1
     180.000      568.236      1.0        1
     180.000      409.033      1.0        1
     180.000      230.440      1.0        1
     180.000       41.267      1.0        1
      -0.000      147.315      1.0        1
      -0.000      330.213      1.0        1
      -0.000      496.852      1.0        1
       0.000      639.561      1.0        1
      -0.000      751.916      1.0        1
       0.000      829.011      1.0        1
      -0.000      867.649      1.0        1
      -0.000      866.447      1.0        1
      -0.000      825.864      1.0        1
      -0.000      748.129      1.0        1
       0.000      637.104      1.0        1
       0.000      498.072      1.0        1
      -0.000      337.465      1.0        1
      -0.000      162.558      1.0        1
     180.000       16.876      1.0        1
     180.000      196.912      1.0        1
     180.000      367.824      1.0        1
     180.000      522.407      1.0        1
     180.000      654.278      1.0        1
     180.000      758.123      1.0        1
     180.000      829.894      1.0        1
     180.000      866.951      1.0        1
     180.000      868.136      1.0        1
     180.000      833.780      1.0        1
     180.000      765.660      1.0        1
     180.000      666.886      1.0        1
     180.000      541.742      1.0        1
     180.000      395.490      1.0        1
     180.000      234.132      1.0        1
     180.000       64.153      1.0        1
       0.000      105.739      1.0        1
       0.000      272.887      1.0        1
       0.000      428.936      1.0        1
      -0.000      568.071      1.0        1
       0.000      685.227      1.0        1
      -0.000      776.256      1.0        1
       0.000      838.064      1.0        1
       0.000      868.696      1.0        1
       0.000      867.379      1.0        1
      -0.000      834.524      1.0        1
       0.000      771.673      1.0        1
      -0.000      681.419      1.0        1
      -0.000      567.282      1.0        1
       0.000      433.564      1.0        1
      -0.000      285.168      1.0        1
      -0.000      127.419      1.0        1
     180.000       32.139      1.0        1
     180.000      191.938      1.0        1
     180.000      344.578      1.0        1
     180.000      485.005      1.0        1
     180.000      608.674      1.0        1
     180.000      711.687      1.0        1
     180.000      790.904      1.0        1
     180.000      844.027      1.0        1
     180.000      869.649      1.0        1
     180.000      867.281      1.0        1
     180.000      837.335      1.0        1
     180.000      781.091      1.0        1
     180.000      700.630      1.0        1
     180.000      598.747      1.0        1
     180.000      478.843      1.0        1
     180.000      344.802      1.0        1
     180.000      200.858      1.0        1
     180.000       51.460      1.0        1
       0.000       96.876      1.0        1
      -0.000      243.697      1.0        1
       0.000      382.746      1.0        1
      -0.000      510.085      1.0        1
      -0.000      622.195      1.0        1
      -0.000      716.070      1.0        1
       0.000      789.286      1.0        1
       0.000      840.055      1.0        1
      -0.000      867.255      1.0        1
       0.000      870.441      1.0        1
      -0.000      849.839      1.0        1
      -0.000      806.320      1.0        1
      -0.000      741.354      1.0        1
       0.000      656.953      1.0        1
      -0.000      555.604      1.0        1
      -0.000      440.183      1.0        1
       0.000      313.869      1.0        1
       0.000      180.055      1.0        1
       0.000       42.247      1.0        1
     180.000       94.023      1.0        1
     180.000      229.294      1.0        1
     180.000      358.256      1.0        1
     180.000      477.832      1.0        1
     180.000      585.244      1.0        1
     180.000      678.073      1.0        1
     180.000      754.309      1.0        1
     180.000      812.382      1.0        1
     180.000      851.187      1.0        1
     180.000      870.098      1.0        1
     180.000      868.963      1.0        1
     180.000      848.095      1.0        1
     180.000      808.247      1.0        1
     180.000      750.584      1.0        1
     180.000      676.637      1.0        1
     180.000      588.265      1.0        1
     180.000      487.593      1.0        1
     180.000      376.965      1.0        1
     180.000      258.879      1.0        1
     180.000      135.930      1.0        1
     180.000       10.754      1.0        1
       0.000      112.034      1.0        1
      -0.000      233.892      1.0        1
       0.000      350.401      1.0        1
       0.000      459.311      1.0        1
      -0.000      558.583      1.0        1
       0.000      646.418      1.0        1
       0.000      721.290      1.0        1
       0.000      781.964      1.0        1
       0.000      827.508      1.0        1
      -0.000      857.305      1.0        1
       0.000      871.051      1.0        1
       0.000      868.746      1.0        1
       0.000      850.690      1.0        1
      -0.000      817.461      1.0        1
      -0.000      769.897      1.0        1
      -0.000      709.070      1.0        1
       0.000      636.256      1.0        1
      -0.000      552.910      1.0        1
       0.000      460.627      1.0        1
      -0.000      361.112      1.0        1
       0.000      256.147      1.0        1
       0.000      147.555      1.0        1
      -0.000       37.170      1.0        1
     180.000       71.199      1.0        1
     180.000      179.790      1.0        1
     180.000      284.923      1.0        1
     180.000      385.018      1.0        1
     180.000      478.622      1.0        1
     180.000      564.421      1.0        1
     180.000      641.264      1.0        1
     180.000      708.164      1.0        1
     180.000      764.316      1.0        1
     180.000      809.097      1.0        1
     180.000      842.068      1.0        1
     180.000      862.978      1.0        1
     180.000      871.752      1.0        1
     180.000      868.492      1.0        1
     180.000      853.466      1.0        1
     180.000      827.094      1.0        1
     180.000      789.941      1.0        1
     180.000      742.699      1.0        1
     180.000      686.174      1.0        1
     180.000      621.269      1.0        1
     180.000      548.968      1.0        1
     180.000      470.318      1.0        1
     180.000      386.416      1.0        1
     180.000      298.389      1.0        1
     180.000      207.377      1.0        1
     180.000      114.522      1.0        1
     180.000       20.950      1.0        1
      -0.000       70.242      1.0        1
      -0.000      161.995      1.0        1
       0.000      251.306      1.0        1
      -0.000      337.231      1.0        1
       0.000      418.897      1.0        1
       0.000      495.509      1.0        1
       0.000      566.355      1.0        1
      -0.000      630.812      1.0        1
       0.000      688.345      1.0        1
       0.000      738.514      1.0        1
       0.000      780.970      1.0        1
       0.000      815.460      1.0        1
       0.000      841.818      1.0        1
      -0.000      859.969      1.0        1
       0.000      869.923      1.0        1
      -0.000      871.768      1.0        1
      -0.000      865.670      1.0        1
       0.000      851.866      1.0        1
      -0.000      830.654      1.0        1
      -0.000      802.395      1.0        1
       0.000      767.498      1.0        1
       0.000      726.418      1.0        1
      -0.000      679.648      1.0        1
       0.000      627.713      1.0        1
      -0.000      571.163      1.0        1
      -0.000      510.567      1.0        1
      -0.000      446.503      1.0        1
       0.000      379.560      1.0        1
       0.000      310.323      1.0        1
      -0.000      239.375      1.0        1
      -0.000      167.288      1.0        1
      -0.000       94.619      1.0        1
      -0.000       21.910      1.0        1
     180.000       48.324      1.0        1
     180.000      119.589      1.0        1
     180.000      189.422      1.0        1
     180.000      257.389      1.0        1
     180.000      323.088      1.0        1
     180.000      386.150      1.0        1
     180.000      446.244      1.0        1
     180.000      503.070      1.0        1
     180.000      556.368      1.0        1
     180.000      605.911      1.0        1
     180.000      651.508      1.0        1
     180.000      693.004      1.0        1
     180.000      730.276      1.0        1
     180.000      763.236      1.0        1
     180.000      791.827      1.0        1
     180.000      816.020      1.0        1
     180.000      835.819      1.0        1
     180.000      851.252      1.0        1
     180.000      862.371      1.0        1
     180.000      869.254      1.0        1
     180.000      871.997      1.0        1
     180.000      870.720      1.0        1
     180.000      865.555      1.0        1
     180.000      856.653      1.0        1
     180.000      844.176      1.0        1
     180.000      828.299      1.0        1
     180.000      809.207      1.0        1
     180.000      787.092      1.0        1
     180.000      762.151      1.0        1
     180.000      734.587      1.0        1
     180.000      704.607      1.0        1
     180.000      672.416      1.0        1
     180.000      638.222      1.0        1
     180.000      602.231      1.0        1
     180.000      564.648      1.0        1
     180.000      525.671      1.0        1
     180.000      485.498      1.0        1
     180.000      444.319      1.0        1
     180.000      402.320      1.0        1
     180.000      359.678      1.0        1
     180.000      316.564      1.0        1
     180.000      273.143      1.0        1
     180.000      229.571      1.0        1
     180.000      185.993      1.0        1
     180.000      142.549      1.0        1
     180.000       99.370      1.0        1
     180.000       56.575      1.0        1
     180.000       14.277      1.0        1
      -0.000       25.421      1.0        1
       0.000       66.423      1.0        1
      -0.000      106.644      1.0        1
      -0.000      146.008      1.0        1
       0.000      184.443      1.0        1
      -0.000      221.890      1.0        1
      -0.000      258.296      1.0        1
       0.000      293.614      1.0        1
       0.000      327.807      1.0        1
      -0.000      360.842      1.0        1
      -0.000      392.694      1.0        1
      -0.000      423.346      1.0        1
       0.000      452.783      1.0        1
       0.000      481.000      1.0        1
       0.000      507.992      1.0        1
      -0.000      533.764      1.0        1
      -0.000      558.322      1.0        1
       0.000      581.677      1.0        1
      -0.000      603.844      1.0        1
       0.000      624.842      1.0        1
       0.000      644.692      1.0        1
      -0.000      663.418      1.0        1
       0.000      681.048      1.0        1
      -0.000      697.609      1.0        1
      -0.000      713.134      1.0        1
      -0.000      727.654      1.0        1
      -0.000      741.203      1.0        1
       0.000      753.816      1.0        1
      -0.000      765.531      1.0        1
       0.000      776.382      1.0        1
      -0.000      786.408      1.0        1
      -0.000      795.646      1.0        1
      -0.000      804.133      1.0        1
      -0.000      811.909      1.0        1
       0.000      819.009      1.0        1
       0.000      825.471      1.0        1
      -0.000      831.333      1.0        1
      -0.000      836.630      1.0        1
       0.000      841.399      1.0        1
       0.000      845.673      1.0        1
      -0.000      849.488      1.0        1
       0.000      852.876      1.0        1
      -0.000      855.870      1.0        1
       0.000      858.500      1.0        1
      -0.000      860.798      1.0        1
      -0.000      862.791      1.0        1
       0.000      864.508      1.0        1
       0.000      865.975      1.0        1
       0.000      867.218      1.0        1
      -0.000      868.260      1.0        1
      -0.000      869.124      1.0        1
      -0.000      869.832      1.0        1
       0.000      870.403      1.0        1
      -0.000      870.857      1.0        1
       0.000      871.211      1.0        1
       0.000      871.480      1.0        1
       0.000      871.680      1.0        1
       0.000      871.823      1.0        1
       0.000      871.921      1.0        1
       0.000      871.985      1.0        1
       0.000      872.024      1.0        1
       0.000      872.046      1.0        1
      -0.000      872.056      1.0        1
       0.000      872.060      2.0        1
       0.000      872.061      1.0        1
      -0.000      872.060      2.0        1
      -0.000      872.056      1.0        1
       0.000      872.046      1.0        1
       0.000      872.024      1.0        1
       0.000      871.985      1.0        1
       0.000      871.921      1.0        1
       0.000      871.823      1.0        1
       0.000      871.680      1.0        1
       0.000      871.480      1.0        1
       0.000      871.211      1.0        1
      -0.000      870.857      1.0        1
       0.000      870.403      1.0        1
      -0.000      869.832      1.0        1
      -0.000      869.124      1.0        1
      -0.000      868.260      1.0        1
       0.000      867.218      1.0        1
       0.000      865.975      1.0        1
       0.000      864.508      1.0        1
      -0.000      862.791      1.0        1
      -0.000      860.798      1.0        1
       0.000      858.500      1.0        1
      -0.000      855.870      1.0        1
       0.000      852.876      1.0        1
      -0.000      849.488      1.0        1
       0.000      845.673      1.0        1
       0.000      841.399      1.0        1
      -0.000      836.630      1.0        1
      -0.000      831.333      1.0        1
       0.000      825.471      1.0        1
       0.000      819.009      1.0        1
      -0.000      811.909      1.0        1
      -0.000      804.133      1.0        1
      -0.000      795.646      1.0        1
      -0.000      786.408      1.0        1
       0.000      776.382      1.0        1
      -0.000      765.531      1.0        1
       0.000      753.816      1.0        1
      -0.000      741.203      1.0        1
      -0.000      727.654      1.0        1
      -0.000      713.134      1.0        1
      -0.000      697.609      1.0        1
       0.000      681.048      1.0        1
      -0.000      663.418      1.0        1
       0.000      644.692      1.0        1
       0.000      624.842      1.0        1
      -0.000      603.844      1.0        1
       0.000      581.677      1.0        1
      -0.000      558.322      1.0        1
      -0.000      533.764      1.0        1
       0.000      507.992      1.0        1
       0.000      481.000      1.0        1
       0.000      452.783      1.0        1
      -0.000      423.346      1.0        1
      -0.000      392.694      1.0        1
      -0.000      360.842      1.0        1
       0.000      327.807      1.0        1
       0.000      293.614      1.0        1
      -0.000      258.296      1.0        1
      -0.000      221.890      1.0        1
       0.000      184.443      1.0        1
      -0.000      146.008      1.0        1
      -0.000      106.644      1.0        1
       0.000       66.423      1.0        1
      -0.000       25.421      1.0        1
     180.000       14.277      1.0        1
     180.000       56.575      1.0        1
     180.000       99.370      1.0        1
     180.000      142.549      1.0        1
     180.000      185.993      1.0        1
     180.000      229.571      1.0        1
     180.000      273.143      1.0        1
     180.000      316.564      1.0        1
     180.000      359.678      1.0        1
     180.000      402.320      1.0        1
     180.000      444.319      1.0        1
     180.000      485.498      1.0        1
     180.000      525.671      1.0        1
     180.000      564.648      1.0        1
     180.000      602.231      1.0        1
     180.000      638.222      1.0        1
     180.000      672.416      1.0        1
     180.000      704.607      1.0        1
     180.000      734.587      1.0        1
     180.000      762.151      1.0        1
     180.000      787.092      1.0        1
     180.000      809.207      1.0        1
     180.000      828.299      1.0        1
     180.000      844.176      1.0        1
     180.000      856.653      1.0        1
     180.000      865.555      1.0        1
     180.000      870.720      1.0        1
     180.000      871.997      1.0        1
     180.000      869.254      1.0        1
     180.000      862.371      1.0        1
     180.000      851.252      1.0        1
     180.000      835.819      1.0        1
     180.000      816.020      1.0        1
     180.000      791.827      1.0        1
     180.000      763.236      1.0        1
     180.000      730.276      1.0        1
     180.000      693.004      1.0        1
     180.000      651.508      1.0        1
     180.000      605.911      1.0        1
     180.000      556.368      1.0        1
     180.000      503.070      1.0        1
     180.000      446.244      1.0        1
     180.000      386.150      1.0        1
     180.000      323.088      1.0        1
     180.000      257.389      1.0        1
     180.000      189.422      1.0        1
     180.000      119.589      1.0        1
     180.000       48.324      1.0        1
      -0.000       21.910      1.0        1
      -0.000       94.619      1.0        1
      -0.000      167.288      1.0        1
      -0.000      239.375      1.0        1
       0.000      310.323      1.0        1
       0.000      379.560      1.0        1
      -0.000      446.503      1.0        1
      -0.000      510.567      1.0        1
      -0.000      571.163      1.0        1
       0.000      627.713      1.0        1
      -0.000      679.648      1.0        1
       0.000      726.418      1.0        1
       0.000      767.498      1.0        1
      -0.000      802.395      1.0        1
      -0.000      830.654      1.0        1
       0.000      851.866      1.0        1
      -0.000      865.670      1.0        1
      -0.000      871.768      1.0        1
       0.000      869.923      1.0        1
      -0.000      859.969      1.0        1
       0.000      841.818      1.0        1
       0.000      815.460      1.0        1
       0.000      780.970      1.0        1
       0.000      738.514      1.0        1
       0.000      688.345      1.0        1
      -0.000      630.812      1.0        1
       0.000      566.355      1.0        1
       0.000      495.509      1.0        1
       0.000      418.897      1.0        1
      -0.000      337.231      1.0        1
       0.000      251.306      1.0        1
      -0.000      161.995      1.0        1
      -0.000       70.242      1.0        1
     180.000       20.950      1.0        1
     180.000      114.522      1.0        1
     180.000      207.377      1.0        1
     180.000      298.389      1.0        1
     180.000      386.416      1.0        1
     180.000      470.318      1.0        1
     180.000      548.968      1.0        1
     180.000      621.269      1.0        1
     180.000      686.174      1.0        1
     180.000      742.699      1.0        1
     180.000      789.941      1.0        1
     180.000      827.094      1.0        1
     180.000      853.466      1.0        1
     180.000      868.492      1.0        1
     180.000      871.752      1.0        1
     180.000      862.978      1.0        1
     180.000      842.068      1.0        1
     180.000      809.097      1.0        1
     180.000      764.316      1.0        1
     180.000      708.164      1.0        1
     180.000      641.264      1.0        1
     180.000      564.421      1.0        1
     180.000      478.622      1.0        1
     180.000      385.018      1.0        1
     180.000      284.923      1.0        1
     180.000      179.790      1.0        1
     180.000       71.199      1.0        1
      -0.000       37.170      1.0        1
       0.000      147.555      1.0        1
       0.000      256.147      1.0        1
      -0.000      361.112      1.0        1
       0.000      460.627      1.0        1
      -0.000      552.910      1.0        1
       0.000      636.256      1.0        1
      -0.000      709.070      1.0        1
      -0.000      769.897      1.0        1
      -0.000      817.461      1.0        1
       0.000      850.690      1.0        1
       0.000      868.746      1.0        1
       0.000      871.051      1.0        1
      -0.000      857.305      1.0        1
       0.000      827.508      1.0        1
       0.000      781.964      1.0        1
       0.000      721.290      1.0        1
       0.000      646.418      1.0        1
      -0.000      558.583      1.0        1
       0.000      459.311      1.0        1
       0.000      350.401      1.0        1
      -0.000      233.892      1.0        1
       0.000      112.034      1.0        1
     180.000       10.754      1.0        1
     180.000      135.930      1.0        1
     180.000      258.879      1.0        1
     180.000      376.965      1.0        1
     180.000      487.593      1.0        1
     180.000      588.265      1.0        1
     180.000      676.637      1.0        1
     180.000      750.584      1.0        1
     180.000      808.247      1.0        1
     180.000      848.095      1.0        1
     180.000      868.963      1.0        1
     180.000      870.098      1.0        1
     180.000      851.187      1.0        1
     180.000      812.382      1.0        1
     180.000      754.309      1.0        1
     180.000      678.073      1.0        1
     180.000      585.244      1.0        1
     180.000      477.832      1.0        1
     180.000      358.256      1.0        1
     180.000      229.294      1.0        1
     180.000       94.023      1.0        1
       0.000       42.247      1.0        1
       0.000      180.055      1.0        1
       0.000      313.869      1.0        1
      -0.000      440.183      1.0        1
      -0.000      555.604      1.0        1
       0.000      656.953      1.0        1
      -0.000      741.354      1.0        1
      -0.000      806.320      1.0        1
      -0.000      849.839      1.0        1
       0.000      870.441      1.0        1
      -0.000      867.255      1.0        1
       0.000      840.055      1.0        1
       0.000      789.286      1.0        1
      -0.000      716.070      1.0        1
      -0.000      622.195      1.0        1
      -0.000      510.085      1.0        1
       0.000      382.746      1.0        1
      -0.000      243.697      1.0        1
       0.000       96.876      1.0        1
     180.000       51.460      1.0        1
     180.000      200.858      1.0        1
     180.000      344.802      1.0        1
     180.000      478.843      1.0        1
     180.000      598.747      1.0        1
     180.000      700.630      1.0        1
     180.000      781.091      1.0        1
     180.000      837.335      1.0        1
     180.000      867.281      1.0        1
     180.000      869.649      1.0        1
     180.000      844.027      1.0        1
     180.000      790.904      1.0        1
     180.000      711.687      1.0        1
     180.000      608.674      1.0        1
     180.000      485.005      1.0        1
     180.000      344.578      1.0        1
     180.000      191.938      1.0        1
     180.000       32.139      1.0        1
      -0.000      127.419      1.0        1
      -0.000      285.168      1.0        1
       0.000      433.564      1.0        1
      -0.000      567.282      1.0        1
      -0.000      681.419      1.0        1
       0.000      771.673      1.0        1
      -0.000      834.524      1.0        1
       0.000      867.379      1.0        1
       0.000      868.696      1.0        1
       0.000      838.064      1.0        1
      -0.000      776.256      1.0        1
       0.000      685.227      1.0        1
      -0.000      568.071      1.0        1
       0.000      428.936      1.0        1
       0.000      272.887      1.0        1
       0.000      105.739      1.0        1
     180.000       64.153      1.0        1
     180.000      234.132      1.0        1
     180.000      395.490      1.0        1
     180.000      541.742      1.0        1
     180.000      666.886      1.0        1
     180.000      765.660      1.0        1
     180.000      833.780      1.0        1
     180.000      868.136      1.0        1
     180.000      866.951      1.0        1
     180.000      829.894      1.0        1
     180.000      758.123      1.0        1
     180.000      654.278      1.0        1
     180.000      522.407      1.0        1
     180.000      367.824      1.0        1
     180.000      196.912      1.0        1
     180.000       16.876      1.0        1
      -0.000      162.558      1.0        1
      -0.000      337.465      1.0        1
       0.000      498.072      1.0        1
       0.000      637.104      1.0        1
      -0.000      748.129      1.0        1
      -0.000      825.864      1.0        1
      -0.000      866.447      1.0        1
      -0.000      867.649      1.0        1
       0.000      829.011      1.0        1
      -0.000      751.916      1.0        1
       0.000      639.561      1.0        1
      -0.000      496.852      1.0        1
      -0.000      330.213      1.0        1
      -0.000      147.315      1.0        1
     180.000       41.267      1.0        1
     180.000      230.440      1.0        1
     180.000      409.033      1.0        1
     180.000      568.236      1.0        1
     180.000      700.049      1.0        1
     180.000      797.693      1.0        1
     180.000      855.981      1.0        1
     180.000      871.613      1.0        1
     180.000      843.388      1.0        1
     180.000      772.312      1.0        1
     180.000      661.594      1.0        1
     180.000      516.537      1.0        1
     180.000      344.305      1.0        1
     180.000      153.590      1.0        1
       0.000       43.805      1.0        1
       0.000      241.465      1.0        1
       0.000      426.902      1.0        1
       0.000      590.114      1.0        1
       0.000      722.135      1.0        1
      -0.000      815.546      1.0        1
       0.000      864.912      1.0        1
       0.000      867.124      1.0        1
       0.000      821.621      1.0        1
      -0.000      730.482      1.0        1
      -0.000      598.358      1.0        1
       0.000      432.275      1.0        1
      -0.000      241.282      1.0        1
      -0.000       35.982      1.0        1
     180.000      170.041      1.0        1
     180.000      368.872      1.0        1
     180.000      546.946      1.0        1
     180.000      693.731      1.0        1
     180.000      800.365      1.0        1
     180.000      860.219      1.0        1
     180.000      869.335      1.0        1
     180.000      826.717      1.0        1
     180.000      734.456      1.0        1
     180.000      597.667      1.0        1
     180.000      424.240      1.0        1
     180.000      224.418      1.0        1
     180.000       10.213      1.0        1
      -0.000      203.299      1.0        1
      -0.000      406.769      1.0        1
       0.000      585.405      1.0        1
      -0.000      727.788      1.0        1
      -0.000      824.623      1.0        1
       0.000      869.373      1.0        1
      -0.000      858.736      1.0        1
      -0.000      792.918      1.0        1
      -0.000      675.696      1.0        1
       0.000      514.240      1.0        1
      -0.000      318.713      1.0        1
       0.000      101.662      1.0        1
     180.000      120.766      1.0        1
     180.000      337.734      1.0        1
     180.000      532.694      1.0        1
     180.000      692.372      1.0        1
     180.000      805.694      1.0        1
     180.000      864.581      1.0        1
     180.000      864.560      1.0        1
     180.000      805.145      1.0        1
     180.000      689.947      1.0        1
     180.000      526.500      1.0        1
     180.000      325.815      1.0        1
     180.000      101.667      1.0        1
       0.000      128.322      1.0        1
       0.000      351.760      1.0        1
      -0.000      550.643      1.0        1
       0.000      710.511      1.0        1
       0.000      819.525      1.0        1
       0.000      869.373      1.0        1
      -0.000      855.947      1.0        1
       0.000      779.725      1.0        1
       0.000      645.819      1.0        1
      -0.000      463.685      1.0        1
       0.000      246.497      1.0        1
      -0.000       10.229      1.0        1
     180.000      225.495      1.0        1
     180.000      446.708      1.0        1
     180.000      634.466      1.0        1
     180.000      774.156      1.0        1
     180.000      854.672      1.0        1
     180.000      869.336      1.0        1
     180.000      816.498      1.0        1
     180.000      699.758      1.0        1
     180.000      527.776      1.0        1
     180.000      313.686      1.0        1
     180.000       74.127      1.0        1
      -0.000      170.015      1.0        1
      -0.000      403.086      1.0        1
      -0.000      604.234      1.0        1
       0.000      756.948      1.0        1
       0.000      848.448      1.0        1
      -0.000      870.795      1.0        1
      -0.000      821.632      1.0        1
       0.000      704.478      1.0        1
      -0.000      528.540      1.0        1
      -0.000      308.042      1.0        1
       0.000       61.121      1.0        1
     180.000      189.629      1.0        1
     180.000      426.870      1.0        1
     180.000      628.313      1.0        1
     180.000      776.481      1.0        1
     180.000      858.258      1.0        1
     180.000      866.099      1.0        1
     180.000      798.781      1.0        1
     180.000      661.622      1.0        1
     180.000      466.121      1.0        1
     180.000      229.059      1.0        1
       0.000       26.905      1.0        1
      -0.000      283.002      1.0        1
       0.000      514.351      1.0        1
      -0.000      700.020      1.0        1
       0.000      822.942      1.0        1
      -0.000      871.533      1.0        1
      -0.000      840.839      1.0        1
       0.000      733.101      1.0        1
      -0.000      557.670      1.0        1
      -0.000      330.263      1.0        1
      -0.000       71.606      1.0        1
     180.000      192.414      1.0        1
     180.000      440.938      1.0        1
     180.000      648.461      1.0        1
     180.000      795.078      1.0        1
     180.000      866.441      1.0        1
     180.000      855.214      1.0        1
     180.000      761.898      1.0        1
     180.000      594.912      1.0        1
     180.000      369.900      1.0        1
     180.000      108.334      1.0        1
       0.000      162.495      1.0        1
      -0.000      419.901      1.0        1
       0.000      636.409      1.0        1
      -0.000      790.302      1.0        1
       0.000      865.848      1.0        1
      -0.000      854.965      1.0        1
      -0.000      758.157      1.0        1
       0.000      584.603      1.0        1
       0.000      351.362      1.0        1
      -0.000       81.763      1.0        1
     180.000      194.886      1.0        1
     180.000      454.038      1.0        1
     180.000      666.838      1.0        1
     180.000      810.931      1.0        1
     180.000      870.868      1.0        1
     180.000      839.823      1.0        1
     180.000      720.451      1.0        1
     180.000      524.757      1.0        1
     180.000      272.962      1.0        1
      -0.000        6.515      1.0        1
      -0.000      287.793      1.0        1
      -0.000      538.682      1.0        1
       0.000      731.938      1.0        1
      -0.000      846.260      1.0        1
       0.000      868.703      1.0        1
      -0.000      796.218      1.0        1
       0.000      636.140      1.0        1
       0.000      405.539      1.0        1
       0.000      129.476      1.0        1
     180.000      159.665      1.0        1
     180.000      433.486      1.0        1
     180.000      659.184      1.0        1
     180.000      811.044      1.0        1
     180.000      871.428      1.0        1
     180.000      832.896      1.0        1
     180.000      699.213      1.0        1
     180.000      485.084      1.0        1
     180.000      214.624      1.0        1
      -0.000       79.290      1.0        1
       0.000      366.501      1.0        1
       0.000      611.505      1.0        1
      -0.000      785.383      1.0        1
       0.000      867.270      1.0        1
      -0.000      846.934      1.0        1
      -0.000      726.148      1.0        1
       0.000      518.650      1.0        1
       0.000      248.684      1.0        1
     180.000       49.765      1.0        1
     180.000      344.704      1.0        1
     180.000      598.439      1.0        1
     180.000      779.908      1.0        1
     180.000      866.545      1.0        1
     180.000      847.163      1.0        1
     180.000      723.497      1.0        1
     180.000      510.175      1.0        1
     180.000      233.089      1.0        1
      -0.000       71.669      1.0        1
      -0.000      369.953      1.0        1
       0.000      622.292      1.0        1
       0.000      796.624      1.0        1
       0.000      870.433      1.0        1
       0.000      833.744      1.0        1
      -0.000      690.572      1.0        1
       0.000      458.608      1.0        1
      -0.000      167.131      1.0        1
     180.000      144.601      1.0        1
     180.000      440.077      1.0        1
     180.000      678.760      1.0        1
     180.000      829.145      1.0        1
     180.000      870.995      1.0        1
     180.000      798.163      1.0        1
     180.000      619.600      1.0        1
     180.000      358.373      1.0        1
     180.000       48.790      1.0        1
       0.000      266.036      1.0        1
      -0.000      547.619      1.0        1
      -0.000      755.808      1.0        1
      -0.000      862.012      1.0        1
      -0.000      851.216      1.0        1
       0.000      724.216      1.0        1
      -0.000      497.724      1.0        1
       0.000      202.288      1.0        1
     180.000      119.737      1.0        1
     180.000      427.647      1.0        1
     180.000      676.550      1.0        1
     180.000      831.380      1.0        1
     180.000      869.911      1.0        1
     180.000      786.066      1.0        1
     180.000      590.984      1.0        1
     180.000      311.676      1.0        1
      -0.000       10.611      1.0        1
      -0.000      333.833      1.0        1
      -0.000      609.664      1.0        1
       0.000      798.161      1.0        1
       0.000      871.616      1.0        1
      -0.000      818.739      1.0        1
      -0.000      646.517      1.0        1
       0.000      379.436      1.0        1
       0.000       56.114      1.0        1
     180.000      274.191      1.0        1
     180.000      566.456      1.0        1
     180.000      775.139      1.0        1
     180.000      868.732      1.0        1
     180.000      832.625      1.0        1
     180.000      671.517      1.0        1
     180.000      408.958      1.0        1
     180.000       84.039      1.0        1
      -0.000      252.342      1.0        1
      -0.000      552.787      1.0        1
      -0.000      769.224      1.0        1
       0.000      868.032      1.0        1
       0.000      833.380      1.0        1
       0.000      669.893      1.0        1
      -0.000      402.202      1.0        1
       0.000       71.363      1.0        1
     180.000      269.343      1.0        1
     180.000      570.309      1.0        1
     180.000      782.013      1.0        1
     180.000      870.583      1.0        1
     180.000      821.342      1.0        1
     180.000      641.379      1.0        1
     180.000      358.692      1.0        1
     180.000       17.969      1.0        1
      -0.000      324.383      1.0        1
      -0.000      616.888      1.0        1
       0.000      809.966      1.0        1
       0.000      871.756      1.0        1
      -0.000      791.504      1.0        1
       0.000      581.582      1.0        1
       0.000      275.746      1.0        1
     180.000       74.159      1.0        1
     180.000      414.242      1.0        1
     180.000      686.063      1.0        1
     180.000      844.048      1.0        1
     180.000      861.233      1.0        1
     180.000      734.010      1.0        1
     180.000      483.019      1.0        1
     180.000      149.965      1.0        1
      -0.000      207.197      1.0        1
       0.000      531.589      1.0        1
      -0.000      765.739      1.0        1
       0.000      869.134      1.0        1
      -0.000      823.359      1.0        1
       0.000      635.538      1.0        1
       0.000      337.407      1.0        1
     180.000       17.895      1.0        1
     180.000      372.492      1.0        1
     180.000      662.457      1.0        1
     180.000      836.662      1.0        1
     180.000      863.897      1.0        1
     180.000      738.618      1.0        1
     180.000      482.233      1.0        1
     180.000      139.618      1.0        1
      -0.000      226.606      1.0        1
       0.000      554.729      1.0        1
       0.000      783.683      1.0        1
      -0.000      871.762      1.0        1
       0.000      802.358      1.0        1
      -0.000      587.266      1.0        1
      -0.000      264.874      1.0        1
     180.000      104.533      1.0        1
     180.000      457.213      1.0        1
     180.000      726.303      1.0        1
     180.000      861.810      1.0        1
     180.000      838.024      1.0        1
     180.000      658.579      1.0        1
     180.000      356.108      1.0        1
       0.000       11.513      1.0        1
      -0.000      379.369      1.0        1
      -0.000      676.313      1.0        1
      -0.000      846.006      1.0        1
      -0.000      855.729      1.0        1
      -0.000      702.862      1.0        1
       0.000      415.730      1.0        1
       0.000       48.541      1.0        1
     180.000      326.710      1.0        1
     180.000      641.530      1.0        1
     180.000      832.883      1.0        1
     180.000      863.145      1.0        1
     180.000      725.669      1.0        1
     180.000      446.435      1.0        1
     180.000       79.338      1.0        1
      -0.000      302.069      1.0        1
       0.000      626.453      1.0        1
      -0.000      827.528      1.0        1
       0.000      864.909      1.0        1
      -0.000      730.401      1.0        1
       0.000      449.988      1.0        1
      -0.000       79.026      1.0        1
     180.000      306.538      1.0        1
     180.000      632.833      1.0        1
     180.000      831.741      1.0        1
     180.000      862.406      1.0        1
     180.000      717.818      1.0        1
     180.000      426.611      1.0        1
     180.000       47.604      1.0        1
      -0.000      339.929      1.0        1
       0.000      659.944      1.0        1
       0.000      844.116      1.0        1
      -0.000      853.714      1.0        1
       0.000      685.942      1.0        1
      -0.000      374.912      1.0        1
     180.000       13.078      1.0        1
     180.000      400.691      1.0        1
     180.000      704.463      1.0        1
     180.000      859.979      1.0        1
     180.000      833.681      1.0        1
     180.000      630.317      1.0        1
     180.000      292.350      1.0        1
      -0.000      106.708      1.0        1
       0.000      485.291      1.0        1
      -0.000      760.010      1.0        1
       0.000      871.228      1.0        1
       0.000      794.180      1.0        1
       0.000      544.717      1.0        1
       0.000      176.285      1.0        1
     180.000      229.325      1.0        1
     180.000      587.152      1.0        1
     180.000      816.487      1.0        1
     180.000      866.302      1.0        1
     180.000      724.803      1.0        1
     180.000      422.460      1.0        1
     180.000       25.680      1.0        1
      -0.000      375.601      1.0        1
      -0.000      695.344      1.0        1
      -0.000      859.551      1.0        1
      -0.000      830.642      1.0        1
      -0.000      614.281      1.0        1
      -0.000      258.549      1.0        1
     180.000      154.520      1.0        1
     180.000      534.808      1.0        1
     180.000      793.436      1.0        1
     180.000      870.717      1.0        1
     180.000      748.132      1.0        1
     180.000      453.015      1.0        1
     180.000       52.720      1.0        1
       0.000      358.561      1.0        1
      -0.000      688.950      1.0        1
      -0.000      859.170      1.0        1
       0.000      828.784      1.0        1
       0.000      604.043      1.0        1
       0.000      236.895      1.0        1
     180.000      184.791      1.0        1
     180.000      565.165      1.0        1
     180.000      811.922      1.0        1
     180.000      865.858      1.0        1
     180.000      713.295      1.0        1
     180.000      389.817      1.0        1
       0.000       25.771      1.0        1
      -0.000      437.488      1.0        1
       0.000      744.055      1.0        1
      -0.000      870.909      1.0        1
      -0.000      786.532      1.0        1
      -0.000      510.550      1.0        1
      -0.000      109.455      1.0        1
     180.000      317.187      1.0        1
     180.000      668.366      1.0        1
     180.000      855.383      1.0        1
     180.000      831.421      1.0        1
     180.000      601.525      1.0        1
     180.000      221.865      1.0        1
      -0.000      211.738      1.0        1
      -0.000      594.846      1.0        1
       0.000      829.396      1.0        1
       0.000      855.927      1.0        1
       0.000      666.903      1.0        1
       0.000      309.123      1.0        1
     180.000      125.587      1.0        1
     180.000      530.752      1.0        1
     180.000      801.154      1.0        1
     180.000      867.250      1.0        1
     180.000      711.288      1.0        1
     180.000      372.377      1.0        1
       0.000       61.037      1.0        1
      -0.000      481.009      1.0        1
       0.000      776.821      1.0        1
      -0.000      871.224      1.0        1
      -0.000      738.841      1.0        1
      -0.000      413.285      1.0        1
     180.000       19.061      1.0        1
     180.000      448.702      1.0        1
     180.000      760.605      1.0        1
     180.000      872.027      1.0        1
     180.000      752.692      1.0        1
     180.000      433.320      1.0        1
      -0.000        0.000      1.0        1
      -0.000      435.532      1.0        1
       0.000      754.934      1.0        1
      -0.000      872.061      1.0        1
     180.000      872.061      1.0        1
     180.000      754.934      1.0        1
     180.000      435.532      1.0        1
     180.000        0.000      1.0        1
      -0.000      433.320      1.0        1
      -0.000      752.692      1.0        1
      -0.000      872.027      1.0        1
      -0.000      760.605      1.0        1
      -0.000      448.702      1.0        1
      -0.000       19.061      1.0        1
     180.000      413.285      1.0        1
     180.000      738.841      1.0        1
     180.000      871.224      1.0        1
     180.000      776.821      1.0        1
     180.000      481.009      1.0        1
     180.000       61.037      1.0        1
      -0.000      372.377      1.0        1
      -0.000      711.288      1.0        1
      -0.000      867.250      1.0        1
      -0.000      801.154      1.0        1
      -0.000      530.752      1.0        1
      -0.000      125.587      1.0        1
     180.000      309.123      1.0        1
     180.000      666.903      1.0        1
     180.000      855.927      1.0        1
     180.000      829.396      1.0        1
     180.000      594.846      1.0        1
     180.000      211.738      1.0        1
      -0.000      221.865      1.0        1
      -0.000      601.525      1.0        1
      -0.000      831.421      1.0        1
      -0.000      855.383      1.0        1
      -0.000      668.366      1.0        1
      -0.000      317.187      1.0        1
     180.000      109.455      1.0        1
     180.000      510.550      1.0        1
     180.000      786.532      1.0        1
     180.000      870.909      1.0        1
     180.000      744.055      1.0        1
     180.000      437.488      1.0        1
     180.000       25.771      1.0        1
      -0.000      389.817      1.0        1
      -0.000      713.295      1.0        1
      -0.000      865.858      1.0        1
      -0.000      811.922      1.0        1
      -0.000      565.165      1.0        1
      -0.000      184.791      1.0        1
     180.000      236.895      1.0        1
     180.000      604.043      1.0        1
     180.000      828.784      1.0        1
     180.000      859.170      1.0        1
     180.000      688.950      1.0        1
     180.000      358.561      1.0        1
      -0.000       52.720      1.0        1
      -0.000      453.015      1.0        1
      -0.000      748.132      1.0        1
      -0.000      870.717      1.0        1
      -0.000      793.436      1.0        1
      -0.000      534.808      1.0        1
      -0.000      154.520      1.0        1
     180.000      258.549      1.0        1
     180.000      614.281      1.0        1
     180.000      830.642      1.0        1
     180.000      859.551      1.0        1
     180.000      695.344      1.0        1
     180.000      375.601      1.0        1
      -0.000       25.680      1.0        1
      -0.000      422.460      1.0        1
      -0.000      724.803      1.0        1
      -0.000      866.302      1.0        1
      -0.000      816.487      1.0        1
      -0.000      587.152      1.0        1
      -0.000      229.325      1.0        1
     180.000      176.285      1.0        1
     180.000      544.717      1.0        1
     180.000      794.180      1.0        1
     180.000      871.228      1.0        1
     180.000      760.010      1.0        1
     180.000      485.291      1.0        1
     180.000      106.708      1.0        1
      -0.000      292.350      1.0        1
      -0.000      630.317      1.0        1
      -0.000      833.681      1.0        1
      -0.000      859.979      1.0        1
      -0.000      704.463      1.0        1
      -0.000      400.691      1.0        1
      -0.000       13.078      1.0        1
     180.000      374.912      1.0        1
     180.000      685.942      1.0        1
     180.000      853.714      1.0        1
     180.000      844.116      1.0        1
     180.000      659.944      1.0        1
     180.000      339.929      1.0        1
      -0.000       47.604      1.0        1
      -0.000      426.611      1.0        1
      -0.000      717.818      1.0        1
      -0.000      862.406      1.0        1
      -0.000      831.741      1.0        1
      -0.000      632.833      1.0        1
      -0.000      306.538      1.0        1
     180.000       79.026      1.0        1
     180.000      449.988      1.0        1
     180.000      730.401      1.0        1
     180.000      864.909      1.0        1
     180.000      827.528      1.0        1
     180.000      626.453      1.0        1
     180.000      302.069      1.0        1
      -0.000       79.338      1.0        1
      -0.000      446.435      1.0        1
      -0.000      725.669      1.0        1
      -0.000      863.145      1.0        1
      -0.000      832.883      1.0        1
      -0.000      641.530      1.0        1
      -0.000      326.710      1.0        1
     180.000       48.541      1.0        1
     180.000      415.730      1.0        1
     180.000      702.862      1.0        1
     180.000      855.729      1.0        1
     180.000      846.006      1.0        1
     180.000      676.313      1.0        1
     180.000      379.369      1.0        1
     180.000       11.513      1.0        1
      -0.000      356.108      1.0        1
      -0.000      658.579      1.0        1
      -0.000      838.024      1.0        1
      -0.000      861.810      1.0        1
      -0.000      726.303      1.0        1
       0.000      457.213      1.0        1
      -0.000      104.533      1.0        1
     180.000      264.874      1.0        1
     180.000      587.266      1.0        1
     180.000      802.358      1.0        1
     180.000      871.762      1.0        1
     180.000      783.683      1.0        1
     180.000      554.729      1.0        1
     180.000      226.606      1.0        1
       0.000      139.618      1.0        1
       0.000      482.233      1.0        1
       0.000      738.618      1.0        1
       0.000      863.897      1.0        1
       0.000      836.662      1.0        1
       0.000      662.457      1.0        1
       0.000      372.492      1.0        1
       0.000       17.895      1.0        1
     180.000      337.407      1.0        1
     180.000      635.538      1.0        1
     180.000      823.359      1.0        1
     180.000      869.134      1.0        1
     180.000      765.739      1.0        1
     180.000      531.589      1.0        1
     180.000      207.197      1.0        1
       0.000      149.965      1.0        1
       0.000      483.019      1.0        1
       0.000      734.010      1.0        1
       0.000      861.233      1.0        1
       0.000      844.048      1.0        1
       0.000      686.063      1.0        1
       0.000      414.242      1.0        1
       0.000       74.159      1.0        1
     180.000      275.746      1.0        1
     180.000      581.582      1.0        1
     180.000      791.504      1.0        1
     180.000      871.756      1.0        1
     180.000      809.966      1.0        1
     180.000      616.888      1.0        1
     180.000      324.383      1.0        1
       0.000       17.969      1.0        1
       0.000      358.692      1.0        1
       0.000      641.379      1.0        1
       0.000      821.342      1.0        1
       0.000      870.583      1.0        1
       0.000      782.013      1.0        1
       0.000      570.309      1.0        1
       0.000      269.343      1.0        1
     180.000       71.363      1.0        1
     180.000      402.202      1.0        1
     180.000      669.893      1.0        1
     180.000      833.380      1.0        1
     180.000      868.032      1.0        1
     180.000      769.224      1.0        1
     180.000      552.787      1.0        1
     180.000      252.342      1.0        1
       0.000       84.039      1.0        1
       0.000      408.958      1.0        1
       0.000      671.517      1.0        1
       0.000      832.625      1.0        1
       0.000      868.732      1.0        1
       0.000      775.139      1.0        1
       0.000      566.456      1.0        1
       0.000      274.191      1.0        1
     180.000       56.114      1.0        1
     180.000      379.436      1.0        1
     180.000      646.517      1.0        1
     180.000      818.739      1.0        1
     180.000      871.616      1.0        1
     180.000      798.161      1.0        1
     180.000      609.664      1.0        1
     180.000      333.833      1.0        1
     180.000       10.611      1.0        1
       0.000      311.676      1.0        1
       0.000      590.984      1.0        1
       0.000      786.066      1.0        1
       0.000      869.911      1.0        1
       0.000      831.380      1.0        1
       0.000      676.550      1.0        1
       0.000      427.647      1.0        1
       0.000      119.737      1.0        1
     180.000      202.288      1.0        1
     180.000      497.724      1.0        1
     180.000      724.216      1.0        1
     180.000      851.216      1.0        1
     180.000      862.012      1.0        1
     180.000      755.808      1.0        1
     180.000      547.619      1.0        1
     180.000      266.036      1.0        1
       0.000       48.790      1.0        1
       0.000      358.373      1.0        1
       0.000      619.600      1.0        1
       0.000      798.163      1.0        1
       0.000      870.995      1.0        1
       0.000      829.145      1.0        1
       0.000      678.760      1.0        1
       0.000      440.077      1.0        1
       0.000      144.601      1.0        1
     180.000      167.131      1.0        1
     180.000      458.608      1.0        1
     180.000      690.572      1.0        1
     180.000      833.744      1.0        1
     180.000      870.433      1.0        1
     180.000      796.624      1.0        1
     180.000      622.292      1.0        1
     180.000      369.953      1.0        1
     180.000       71.669      1.0        1
       0.000      233.089      1.0        1
       0.000      510.175      1.0        1
       0.000      723.497      1.0        1
       0.000      847.163      1.0        1
       0.000      866.545      1.0        1
       0.000      779.908      1.0        1
       0.000      598.439      1.0        1
       0.000      344.704      1.0        1
       0.000       49.765      1.0        1
     180.000      248.684      1.0        1
     180.000      518.650      1.0        1
     180.000      726.148      1.0        1
     180.000      846.934      1.0        1
     180.000      867.270      1.0        1
     180.000      785.383      1.0        1
     180.000      611.505      1.0        1
     180.000      366.501      1.0        1
     180.000       79.290      1.0        1
       0.000      214.624      1.0        1
       0.000      485.084      1.0        1
       0.000      699.213      1.0        1
       0.000      832.896      1.0        1
       0.000      871.428      1.0        1
       0.000      811.044      1.0        1
       0.000      659.184      1.0        1
       0.000      433.486      1.0        1
       0.000      159.665      1.0        1
     180.000      129.476      1.0        1
     180.000      405.539      1.0        1
     180.000      636.140      1.0        1
     180.000      796.218      1.0        1
     180.000      868.703      1.0        1
     180.000      846.260      1.0        1
     180.000      731.938      1.0        1
     180.000      538.682      1.0        1
     180.000      287.793      1.0        1
     180.000        6.515      1.0        1
       0.000      272.962      1.0        1
       0.000      524.757      1.0        1
       0.000      720.451      1.0        1
       0.000      839.823      1.0        1
       0.000      870.868      1.0        1
       0.000      810.931      1.0        1
       0.000      666.838      1.0        1
       0.000      454.038      1.0        1
       0.000      194.886      1.0        1
     180.000       81.763      1.0        1
     180.000      351.362      1.0        1
     180.000      584.603      1.0        1
     180.000      758.157      1.0        1
     180.000      854.965      1.0        1
     180.000      865.848      1.0        1
     180.000      790.302      1.0        1
     180.000      636.409      1.0        1
     180.000      419.901      1.0        1
     180.000      162.495      1.0        1
       0.000      108.334      1.0        1
       0.000      369.900      1.0        1
       0.000      594.912      1.0        1
       0.000      761.898      1.0        1
       0.000      855.214      1.0        1
       0.000      866.441      1.0        1
       0.000      795.078      1.0        1
       0.000      648.461      1.0        1
       0.000      440.938      1.0        1
       0.000      192.414      1.0        1
     180.000       71.606      1.0        1
     180.000      330.263      1.0        1
     180.000      557.670      1.0        1
     180.000      733.101      1.0        1
     180.000      840.839      1.0        1
     180.000      871.533      1.0        1
     180.000      822.942      1.0        1
     180.000      700.020      1.0        1
     180.000      514.351      1.0        1
     180.000      283.002      1.0        1
     180.000       26.905      1.0        1
       0.000      229.059      1.0        1
       0.000      466.121      1.0        1
      -0.000      661.622      1.0        1
      -0.000      798.781      1.0        1
       0.000      866.099      1.0        1
       0.000      858.258      1.0        1
      -0.000      776.481      1.0        1
       0.000      628.313      1.0        1
      -0.000      426.870      1.0        1
       0.000      189.629      1.0        1
     180.000       61.121      1.0        1
     180.000      308.042      1.0        1
     180.000      528.540      1.0        1
     180.000      704.478      1.0        1
     180.000      821.632      1.0        1
     180.000      870.795      1.0        1
     180.000      848.448      1.0        1
     180.000      756.948      1.0        1
     180.000      604.234      1.0        1
     180.000      403.086      1.0        1
     180.000      170.015      1.0        1
       0.000       74.127      1.0        1
      -0.000      313.686      1.0        1
      -0.000      527.776      1.0        1
       0.000      699.758      1.0        1
      -0.000      816.498      1.0        1
      -0.000      869.336      1.0        1
      -0.000      854.672      1.0        1
      -0.000      774.156      1.0        1
       0.000      634.466      1.0        1
      -0.000      446.708      1.0        1
      -0.000      225.495      1.0        1
     180.000       10.229      1.0        1
     180.000      246.497      1.0        1
     180.000      463.685      1.0        1
     180.000      645.819      1.0        1
     180.000      779.725      1.0        1
     180.000      855.947      1.0        1
     180.000      869.373      1.0        1
     180.000      819.525      1.0        1
     180.000      710.511      1.0        1
     180.000      550.643      1.0        1
     180.000      351.760      1.0        1
     180.000      128.322      1.0        1
      -0.000      101.667      1.0        1
       0.000      325.815      1.0        1
      -0.000      526.500      1.0        1
       0.000      689.947      1.0        1
       0.000      805.145      1.0        1
       0.000      864.560      1.0        1
       0.000      864.581      1.0        1
      -0.000      805.694      1.0        1
       0.000      692.372      1.0        1
      -0.000      532.694      1.0        1
      -0.000      337.734      1.0        1
      -0.000      120.766      1.0        1
     180.000      101.662      1.0        1
     180.000      318.713      1.0        1
     180.000      514.240      1.0        1
     180.000      675.696      1.0        1
     180.000      792.918      1.0        1
     180.000      858.736      1.0        1
     180.000      869.373      1.0        1
     180.000      824.623      1.0        1
     180.000      727.788      1.0        1
     180.000      585.405      1.0        1
     180.000      406.769      1.0        1
     180.000      203.299      1.0        1
      -0.000       10.213      1.0        1
       0.000      224.418      1.0        1
       0.000      424.240      1.0        1
       0.000      597.667      1.0        1
       0.000      734.456      1.0        1
      -0.000      826.717      1.0        1
       0.000      869.335      1.0        1
       0.000      860.219      1.0        1
      -0.000      800.365      1.0        1
       0.000      693.731      1.0        1
       0.000      546.946      1.0        1
      -0.000      368.872      1.0        1
       0.000      170.041      1.0        1
     180.000       35.982      1.0        1
     180.000      241.282      1.0        1
     180.000      432.275      1.0        1
     180.000      598.358      1.0        1
     180.000      730.482      1.0        1
     180.000      821.621      1.0        1
     180.000      867.124      1.0        1
     180.000      864.912      1.0        1
     180.000      815.546      1.0        1
     180.000      722.135      1.0        1
     180.000      590.114      1.0        1
     180.000      426.902      1.0        1
     180.000      241.465      1.0        1
     180.000       43.805      1.0        1
      -0.000      153.590      1.0        1
       0.000      344.305      1.0        1
       0.000      516.537      1.0        1
       0.000      661.594      1.0        1
       0.000      772.312      1.0        1
       0.000      843.388      1.0        1
      -0.000      871.613      1.0        1
      -0.000      855.981      1.0        1
       0.000      797.693      1.0        1
       0.000      700.049      1.0        1
      -0.000      568.236      1.0        1
      -0.000      409.033      1.0        1
       0.000      230.440      1.0        1
       0.000       41.267      1.0        1
     180.000      147.315      1.0        1
     180.000      330.213      1.0        1
     180.000      496.852      1.0        1
     180.000      639.561      1.0        1
     180.000      751.916      1.0        1
     180.000      829.011      1.0        1
     180.000      867.649      1.0        1
     180.000      866.447      1.0        1
     180.000      825.864      1.0        1
     180.000      748.129      1.0        1
     180.000      637.104      1.0        1
     180.000      498.072      1.0        1
     180.000      337.465      1.0        1
     180.000      162.558      1.0        1
       0.000       16.876      1.0        1
      -0.000      196.912      1.0        1
      -0.000      367.824      1.0        1
      -0.000      522.407      1.0        1
      -0.000      654.278      1.0        1
      -0.000      758.123      1.0        1
      -0.000      829.894      1.0        1
      -0.000      866.951      1.0        1
      -0.000      868.136      1.0        1
      -0.000      833.780      1.0        1
      -0.000      765.660      1.0        1
      -0.000      666.886      1.0        1
      -0.000      541.742      1.0        1
      -0.000      395.490      1.0        1
      -0.000      234.132      1.0        1
      -0.000       64.153      1.0        1
     180.000      105.739      1.0        1
     180.000      272.887      1.0        1
     180.000      428.936      1.0        1
     180.000      568.071      1.0        1
     180.000      685.227      1.0        1
     180.000      776.256      1.0        1
     180.000      838.064      1.0        1
     180.000      868.696      1.0        1
     180.000      867.379      1.0        1
     180.000      834.524      1.0        1
     180.000      771.673      1.0        1
     180.000      681.419      1.0        1
     180.000      567.282      1.0        1
     180.000      433.564      1.0        1
     180.000      285.168      1.0        1
     180.000      127.419      1.0        1
       0.000       32.139      1.0        1
      -0.000      191.938      1.0        1
      -0.000      344.578      1.0        1
      -0.000      485.005      1.0        1
      -0.000      608.674      1.0        1
      -0.000      711.687      1.0        1
      -0.000      790.904      1.0        1
      -0.000      844.027      1.0        1
      -0.000      869.649      1.0        1
      -0.000      867.281      1.0        1
      -0.000      837.335      1.0        1
      -0.000      781.091      1.0        1
      -0.000      700.630      1.0        1
      -0.000      598.747      1.0        1
      -0.000      478.843      1.0        1
      -0.000      344.802      1.0        1
      -0.000      200.858      1.0        1
      -0.000       51.460      1.0        1
     180.000       96.876      1.0        1
     180.000      243.697      1.0        1
     180.000      382.746      1.0        1
     180.000      510.085      1.0        1
     180.000      622.195      1.0        1
     180.000      716.070      1.0        1
     180.000      789.286      1.0        1
     180.000      840.055      1.0        1
     180.000      867.255      1.0        1
     180.000      870.441      1.0        1
     180.000      849.839      1.0        1
     180.000      806.320      1.0        1
     180.000      741.354      1.0        1
     180.000      656.953      1.0        1
     180.000      555.604      1.0        1
     180.000      440.183      1.0        1
     180.000      313.869      1.0        1
     180.000      180.055      1.0        1
     180.000       42.247      1.0        1
      -0.000       94.023      1.0        1
      -0.000      229.294      1.0        1
      -0.000      358.256      1.0        1
      -0.000      477.832      1.0        1
      -0.000      585.244      1.0        1
      -0.000      678.073      1.0        1
      -0.000      754.309      1.0        1
      -0.000      812.382      1.0        1
       0.000      851.187      1.0        1
      -0.000      870.098      1.0        1
      -0.000      868.963      1.0        1
      -0.000      848.095      1.0        1
      -0.000      808.247      1.0        1
      -0.000      750.584      1.0        1
       0.000      676.637      1.0        1
      -0.000      588.265      1.0        1
      -0.000      487.593      1.0        1
      -0.000      376.965      1.0        1
      -0.000      258.879      1.0        1
       0.000      135.930      1.0        1
       0.000       10.754      1.0        1
     180.000      112.034      1.0        1
     180.000      233.892      1.0        1
     180.000      350.401      1.0        1
     180.000      459.311      1.0        1
     180.000      558.583      1.0        1
     180.000      646.418      1.0        1
     180.000      721.290      1.0        1
     180.000      781.964      1.0        1
     180.000      827.508      1.0        1
     180.000      857.305      1.0        1
     180.000      871.051      1.0        1
     180.000      868.746      1.0        1
     180.000      850.690      1.0        1
     180.000      817.461      1.0        1
     180.000      769.897      1.0        1
     180.000      709.070      1.0        1
     180.000      636.256      1.0        1
     180.000      552.910      1.0        1
     180.000      460.627      1.0        1
     180.000      361.112      1.0        1
     180.000      256.147      1.0        1
     180.000      147.555      1.0        1
     180.000       37.170      1.0        1
       0.000       71.199      1.0        1
      -0.000      179.790      1.0        1
      -0.000      284.923      1.0        1
      -0.000      385.018      1.0        1
      -0.000      478.622      1.0        1
      -0.000      564.421      1.0        1
      -0.000      641.264      1.0        1
      -0.000      708.164      1.0        1
      -0.000      764.316      1.0        1
      -0.000      809.097      1.0        1
      -0.000      842.068      1.0        1
      -0.000      862.978      1.0        1
      -0.000      871.752      1.0        1
      -0.000      868.492      1.0        1
      -0.000      853.466      1.0        1
      -0.000      827.094      1.0        1
      -0.000      789.941      1.0        1
      -0.000      742.699      1.0        1
      -0.000      686.174      1.0        1
      -0.000      621.269      1.0        1
      -0.000      548.968      1.0        1
      -0.000      470.318      1.0        1
      -0.000      386.416      1.0        1
      -0.000      298.389      1.0        1
      -0.000      207.377      1.0        1
      -0.000      114.522      1.0        1
      -0.000       20.950      1.0        1
     180.000       70.242      1.0        1
     180.000      161.995      1.0        1
     180.000      251.306      1.0        1
     180.000      337.231      1.0        1
     180.000      418.897      1.0        1
     180.000      495.509      1.0        1
     180.000      566.355      1.0        1
     180.000      630.812      1.0        1
     180.000      688.345      1.0        1
     180.000      738.514      1.0        1
     180.000      780.970      1.0        1
     180.000      815.460      1.0        1
     180.000      841.818      1.0        1
     180.000      859.969      1.0        1
     180.000      869.923      1.0        1
     180.000      871.768      1.0        1
     180.000      865.670      1.0        1
     180.000      851.866      1.0        1
     180.000      830.654      1.0        1
     180.000      802.395      1.0        1
     180.000      767.498      1.0        1
     180.000      726.418      1.0        1
     180.000      679.648      1.0        1
     180.000      627.713      1.0        1
     180.000      571.163      1.0        1
     180.000      510.567      1.0        1
     180.000      446.503      1.0        1
     180.000      379.560      1.0        1
     180.000      310.323      1.0        1
     180.000      239.375      1.0        1
     180.000      167.288      1.0        1
     180.000       94.619      1.0        1
     180.000       21.910      1.0        1
       0.000       48.324      1.0        1
      -0.000      119.589      1.0        1
      -0.000      189.422      1.0        1
      -0.000      257.389      1.0        1
      -0.000      323.088      1.0        1
      -0.000      386.150      1.0        1
      -0.000      446.244      1.0        1
      -0.000      503.070      1.0        1
      -0.000      556.368      1.0        1
      -0.000      605.911      1.0        1
      -0.000      651.508      1.0        1
      -0.000      693.004      1.0        1
      -0.000      730.276      1.0        1
      -0.000      763.236      1.0        1
      -0.000      791.827      1.0        1
       0.000      816.020      1.0        1
      -0.000      835.819      1.0        1
       0.000      851.252      1.0        1
      -0.000      862.371      1.0        1
       0.000      869.254      1.0        1
       0.000      871.997      1.0        1
      -0.000      870.720      1.0        1
      -0.000      865.555      1.0        1
      -0.000      856.653      1.0        1
       0.000      844.176      1.0        1
      -0.000      828.299      1.0        1
      -0.000      809.207      1.0        1
      -0.000      787.092      1.0        1
      -0.000      762.151      1.0        1
      -0.000      734.587      1.0        1
      -0.000      704.607      1.0        1
      -0.000      672.416      1.0        1
      -0.000      638.222      1.0        1
      -0.000      602.231      1.0        1
      -0.000      564.648      1.0        1
      -0.000      525.671      1.0        1
      -0.000      485.498      1.0        1
      -0.000      444.319      1.0        1
      -0.000      402.320      1.0        1
      -0.000      359.678      1.0        1
      -0.000      316.564      1.0        1
      -0.000      273.143      1.0        1
      -0.000      229.571      1.0        1
      -0.000      185.993      1.0        1
      -0.000      142.549      1.0        1
       0.000       99.370      1.0        1
      -0.000       56.575      1.0        1
      -0.000       14.277      1.0        1
     180.000       25.421      1.0        1
     180.000       66.423      1.0        1
     180.000      106.644      1.0        1
     180.000      146.008      1.0        1
     180.000      184.443      1.0        1
     180.000      221.890      1.0        1
     180.000      258.296      1.0        1
     180.000      293.614      1.0        1
     180.000      327.807      1.0        1
     180.000      360.842      1.0        1
     180.000      392.694      1.0        1
     180.000      423.346      1.0        1
     180.000      452.783      1.0        1
     180.000      481.000      1.0        1
     180.000      507.992      1.0        1
     180.000      533.764      1.0        1
     180.000      558.322      1.0        1
     180.000      581.677      1.0        1
     180.000      603.844      1.0        1
     180.000      624.842      1.0        1
     180.000      644.692      1.0        1
     180.000      663.418      1.0        1
     180.000      681.048      1.0        1
     180.000      697.609      1.0        1
     180.000      713.134      1.0        1
     180.000      727.654      1.0        1
     180.000      741.203      1.0        1
     180.000      753.816      1.0        1
     180.000      765.531      1.0        1
     180.000      776.382      1.0        1
     180.000      786.408      1.0        1
     180.000      795.646      1.0        1
     180.000      804.133      1.0        1
     180.000      811.909      1.0        1
     180.000      819.009      1.0        1
     180.000      825.471      1.0        1
     180.000      831.333      1.0        1
     180.000      836.630      1.0        1
     180.000      841.399      1.0        1
     180.000      845.673      1.0        1
     180.000      849.488      1.0        1
     180.000      852.876      1.0        1
     180.000      855.870      1.0        1
     180.000      858.500      1.0        1
     180.000      860.798      1.0        1
     180.000      862.791      1.0        1
     180.000      864.508      1.0        1
     180.000      865.975      1.0        1
     180.000      867.218      1.0        1
     180.000      868.260      1.0        1
     180.000      869.124      1.0        1
     180.000      869.832      1.0        1
     180.000      870.403      1.0        1
     180.000      870.857      1.0        1
     180.000      871.211      1.0        1
     180.000      871.480      1.0        1
     180.000      871.680      1.0        1
     180.000      871.823      1.0        1
     180.000      871.921      1.0        1
     180.000      871.985      1.0        1
     180.000      872.024      1.0        1
     180.000      872.046      1.0        1
     180.000      872.056      1.0        1
     180.000      872.060      2.0        1
     180.000      872.061      1.0        1
     180.000      872.060      2.0        1
     180.000      872.056      1.0        1
     180.000      872.046      1.0        1
     180.000      872.024      1.0        1
     180.000      871.985      1.0        1
     180.000      871.921      1.0        1
     180.000      871.823      1.0        1
     180.000      871.680      1.0        1
     180.000      871.480      1.0        1
     180.000      871.211      1.0        1
     180.000      870.857      1.0        1
     180.000      870.403      1.0        1
     180.000      869.832      1.0        1
     180.000      869.124      1.0        1
     180.000      868.260      1.0        1
     180.000      867.218      1.0        1
     180.000      865.975      1.0        1
     180.000      864.508      1.0        1
     180.000      862.791      1.0        1
     180.000      860.798      1.0        1
     180.000      858.500      1.0        1
     180.000      855.870      1.0        1
     180.000      852.876      1.0        1
     180.000      849.488      1.0        1
     180.000      845.673      1.0        1
     180.000      841.399      1.0        1
     180.000      836.630      1.0        1
     180.000      831.333      1.0        1
     180.000      825.471      1.0        1
     180.000      819.009      1.0        1
     180.000      811.909      1.0        1
     180.000      804.133      1.0        1
     180.000      795.646      1.0        1
     180.000      786.408      1.0        1
     180.000      776.382      1.0        1
     180.000      765.531      1.0        1
     180.000      753.816      1.0        1
     180.000      741.203      1.0        1
     180.000      727.654      1.0        1
     180.000      713.134      1.0        1
     180.000      697.609      1.0        1
     180.000      681.048      1.0        1
     180.000      663.418      1.0        1
     180.000      644.692      1.0        1
     180.000      624.842      1.0        1
     180.000      603.844      1.0        1
     180.000      581.677      1.0        1
     180.000      558.322      1.0        1
     180.000      533.764      1.0        1
     180.000      507.992      1.0        1
     180.000      481.000      1.0        1
     180.000      452.783      1.0        1
     180.000      423.346      1.0        1
     180.000      392.694      1.0        1
     180.000      360.842      1.0        1
     180.000      327.807      1.0        1
     180.000      293.614      1.0        1
     180.000      258.296      1.0        1
     180.000      221.890      1.0        1
     180.000      184.443      1.0        1
     180.000      146.008      1.0        1
     180.000      106.644      1.0        1
     180.000       66.423      1.0        1
     180.000       25.421      1.0        1
      -0.000       14.277      1.0        1
      -0.000       56.575      1.0        1
       0.000       99.370      1.0        1
      -0.000      142.549      1.0        1
      -0.000      185.993      1.0        1
      -0.000      229.571      1.0        1
      -0.000      273.143      1.0        1
      -0.000      316.564      1.0        1
      -0.000      359.678      1.0        1
      -0.000      402.320      1.0        1
      -0.000      444.319      1.0        1
      -0.000      485.498      1.0        1
      -0.000      525.671      1.0        1
      -0.000      564.648      1.0        1
      -0.000      602.231      1.0        1
      -0.000      638.222      1.0        1
      -0.000      672.416      1.0        1
      -0.000      704.607      1.0        1
      -0.000      734.587      1.0        1
      -0.000      762.151      1.0        1
      -0.000      787.092      1.0        1
      -0.000      809.207      1.0        1
      -0.000      828.299      1.0        1
       0.000      844.176      1.0        1
      -0.000      856.653      1.0        1
      -0.000      865.555      1.0        1
      -0.000      870.720      1.0        1
       0.000      871.997      1.0        1
       0.000      869.254      1.0        1
      -0.000      862.371      1.0        1
       0.000      851.252      1.0        1
      -0.000      835.819      1.0        1
       0.000      816.020      1.0        1
      -0.000      791.827      1.0        1
      -0.000      763.236      1.0        1
      -0.000      730.276      1.0        1
      -0.000      693.004      1.0        1
      -0.000      651.508      1.0        1
      -0.000      605.911      1.0        1
      -0.000      556.368      1.0        1
      -0.000      503.070      1.0        1
      -0.000      446.244      1.0        1
      -0.000      386.150      1.0        1
      -0.000      323.088      1.0        1
      -0.000      257.389      1.0        1
      -0.000      189.422      1.0        1
      -0.000      119.589      1.0        1
       0.000       48.324      1.0        1
     180.000       21.910      1.0        1
     180.000       94.619      1.0        1
     180.000      167.288      1.0        1
     180.000      239.375      1.0        1
     180.000      310.323      1.0        1
     180.000      379.560      1.0        1
     180.000      446.503      1.0        1
     180.000      510.567      1.0        1
     180.000      571.163      1.0        1
     180.000      627.713      1.0        1
     180.000      679.648      1.0        1
     180.000      726.418      1.0        1
     180.000      767.498      1.0        1
     180.000      802.395      1.0        1
     180.000      830.654      1.0        1
     180.000      851.866      1.0        1
     180.000      865.670      1.0        1
     180.000      871.768      1.0        1
     180.000      869.923      1.0        1
     180.000      859.969      1.0        1
     180.000      841.818      1.0        1
     180.000      815.460      1.0        1
     180.000      780.970      1.0        1
     180.000      738.514      1.0        1
     180.000      688.345      1.0        1
     180.000      630.812      1.0        1
     180.000      566.355      1.0        1
     180.000      495.509      1.0        1
     180.000      418.897      1.0        1
     180.000      337.231      1.0        1
     180.000      251.306      1.0        1
     180.000      161.995      1.0        1
     180.000       70.242      1.0        1
      -0.000       20.950      1.0        1
      -0.000      114.522      1.0        1
      -0.000      207.377      1.0        1
      -0.000      298.389      1.0        1
      -0.000      386.416      1.0        1
      -0.000      470.318      1.0        1
      -0.000      548.968      1.0        1
      -0.000      621.269      1.0        1
      -0.000      686.174      1.0        1
      -0.000      742.699      1.0        1
      -0.000      789.941      1.0        1
      -0.000      827.094      1.0        1
      -0.000      853.466      1.0        1
      -0.000      868.492      1.0        1
      -0.000      871.752      1.0        1
      -0.000      862.978      1.0        1
      -0.000      842.068      1.0        1
      -0.000      809.097      1.0        1
      -0.000      764.316      1.0        1
      -0.000      708.164      1.0        1
      -0.000      641.264      1.0        1
      -0.000      564.421      1.0        1
      -0.000      478.622      1.0        1
      -0.000      385.018      1.0        1
      -0.000      284.923      1.0        1
      -0.000      179.790      1.0        1
       0.000       71.199      1.0        1
     180.000       37.170      1.0        1
     180.000      147.555      1.0        1
     180.000      256.147      1.0        1
     180.000      361.112      1.0        1
     180.000      460.627      1.0        1
     180.000      552.910      1.0        1
     180.000      636.256      1.0        1
     180.000      709.070      1.0        1
     180.000      769.897      1.0        1
     180.000      817.461      1.0        1
     180.000      850.690      1.0        1
     180.000      868.746      1.0        1
     180.000      871.051      1.0        1
     180.000      857.305      1.0        1
     180.000      827.508      1.0        1
     180.000      781.964      1.0        1
     180.000      721.290      1.0        1
     180.000      646.418      1.0        1
     180.000      558.583      1.0        1
     180.000      459.311      1.0        1
     180.000      350.401      1.0        1
     180.000      233.892      1.0        1
     180.000      112.034      1.0        1
       0.000       10.754      1.0        1
       0.000      135.930      1.0        1
      -0.000      258.879      1.0        1
      -0.000      376.965      1.0        1
      -0.000      487.593      1.0        1
      -0.000      588.265      1.0        1
       0.000      676.637      1.0        1
      -0.000      750.584      1.0        1
      -0.000      808.247      1.0        1
      -0.000      848.095      1.0        1
      -0.000      868.963      1.0        1
      -0.000      870.098      1.0        1
       0.000      851.187      1.0        1
      -0.000      812.382      1.0        1
      -0.000      754.309      1.0        1
      -0.000      678.073      1.0        1
      -0.000      585.244      1.0        1
      -0.000      477.832      1.0        1
      -0.000      358.256      1.0        1
      -0.000      229.294      1.0        1
      -0.000       94.023      1.0        1
     180.000       42.247      1.0        1
     180.000      180.055      1.0        1
     180.000      313.869      1.0        1
     180.000      440.183      1.0        1
     180.000      555.604      1.0        1
     180.000      656.953      1.0        1
     180.000      741.354      1.0        1
     180.000      806.320      1.0        1
     180.000      849.839      1.0        1
     180.000      870.441      1.0        1
     180.000      867.255      1.0        1
     180.000      840.055      1.0        1
     180.000      789.286      1.0        1
     180.000      716.070      1.0        1
     180.000      622.195      1.0        1
     180.000      510.085      1.0        1
     180.000      382.746      1.0        1
     180.000      243.697      1.0        1
     180.000       96.876      1.0        1
      -0.000       51.460      1.0        1
      -0.000      200.858      1.0        1
      -0.000      344.802      1.0        1
      -0.000      478.843      1.0        1
      -0.000      598.747      1.0        1
      -0.000      700.630      1.0        1
      -0.000      781.091      1.0        1
      -0.000      837.335      1.0        1
      -0.000      867.281      1.0        1
      -0.000      869.649      1.0        1
      -0.000      844.027      1.0        1
      -0.000      790.904      1.0        1
      -0.000      711.687      1.0        1
      -0.000      608.674      1.0        1
      -0.000      485.005      1.0        1
      -0.000      344.578      1.0        1
      -0.000      191.938      1.0        1
       0.000       32.139      1.0        1
     180.000      127.419      1.0        1
     180.000      285.168      1.0        1
     180.000      433.564      1.0        1
     180.000      567.282      1.0        1
     180.000      681.419      1.0        1
     180.000      771.673      1.0        1
     180.000      834.524      1.0        1
     180.000      867.379      1.0        1
     180.000      868.696      1.0        1
     180.000      838.064      1.0        1
     180.000      776.256      1.0        1
     180.000      685.227      1.0        1
     180.000      568.071      1.0        1
     180.000      428.936      1.0        1
     180.000      272.887      1.0        1
     180.000      105.739      1.0        1
      -0.000       64.153      1.0        1
      -0.000      234.132      1.0        1
      -0.000      395.490      1.0        1
      -0.000      541.742      1.0        1
      -0.000      666.886      1.0        1
      -0.000      765.660      1.0        1
      -0.000      833.780      1.0        1
      -0.000      868.136      1.0        1
      -0.000      866.951      1.0        1
      -0.000      829.894      1.0        1
      -0.000      758.123      1.0        1
      -0.000      654.278      1.0        1
      -0.000      522.407      1.0        1
      -0.000      367.824      1.0        1
      -0.000      196.912      1.0        1
       0.000       16.876      1.0        1
     180.000      162.558      1.0        1
     180.000      337.465      1.0        1
     180.000      498.072      1.0        1
     180.000      637.104      1.0        1
     180.000      748.129      1.0        1
     180.000      825.864      1.0        1
     180.000      866.447      1.0        1
     180.000      867.649      1.0        1
     180.000      829.011      1.0        1
     180.000      751.916      1.0        1
     180.000      639.561      1.0        1
     180.000      496.852      1.0        1
     180.000      330.213      1.0        1
     180.000      147.315      1.0        1
       0.000       41.267      1.0        1
       0.000      230.440      1.0        1
      -0.000      409.033      1.0        1
      -0.000      568.236      1.0        1
       0.000      700.049      1.0        1
       0.000      797.693      1.0        1
      -0.000      855.981      1.0        1
      -0.000      871.613      1.0        1
       0.000      843.388      1.0        1
       0.000      772.312      1.0        1
       0.000      661.594      1.0        1
       0.000      516.537      1.0        1
       0.000      344.305      1.0        1
      -0.000      153.590      1.0        1
     180.000       43.805      1.0        1
     180.000      241.465      1.0        1
     180.000      426.902      1.0        1
     180.000      590.114      1.0        1
     180.000      722.135      1.0        1
     180.000      815.546      1.0        1
     180.000      864.912      1.0        1
     180.000      867.124      1.0        1
     180.000      821.621      1.0        1
     180.000      730.482      1.0        1
     180.000      598.358      1.0        1
     180.000      432.275      1.0        1
     180.000      241.282      1.0        1
     180.000       35.982      1.0        1
       0.000      170.041      1.0        1
      -0.000      368.872      1.0        1
       0.000      546.946      1.0        1
       0.000      693.731      1.0        1
      -0.000      800.365      1.0        1
       0.000      860.219      1.0        1
       0.000      869.335      1.0        1
      -0.000      826.717      1.0        1
       0.000      734.456      1.0        1
       0.000      597.667      1.0        1
       0.000      424.240      1.0        1
       0.000      224.418      1.0        1
      -0.000       10.213      1.0        1
     180.000      203.299      1.0        1
     180.000      406.769      1.0        1
     180.000      585.405      1.0        1
     180.000      727.788      1.0        1
     180.000      824.623      1.0        1
     180.000      869.373      1.0        1
     180.000      858.736      1.0        1
     180.000      792.918      1.0        1
     180.000      675.696      1.0        1
     180.000      514.240      1.0        1
     180.000      318.713      1.0        1
     180.000      101.662      1.0        1
      -0.000      120.766      1.0        1
      -0.000      337.734      1.0        1
      -0.000      532.694      1.0        1
       0.000      692.372      1.0        1
      -0.000      805.694      1.0        1
       0.000      864.581      1.0        1
       0.000      864.560      1.0        1
       0.000      805.145      1.0        1
       0.000      689.947      1.0        1
      -0.000      526.500      1.0        1
       0.000      325.815      1.0        1
      -0.000      101.667      1.0        1
     180.000      128.322      1.0        1
     180.000      351.760      1.0        1
     180.000      550.643      1.0        1
     180.000      710.511      1.0        1
     180.000      819.525      1.0        1
     180.000      869.373      1.0        1
     180.000      855.947      1.0        1
     180.000      779.725      1.0        1
     180.000      645.819      1.0        1
     180.000      463.685      1.0        1
     180.000      246.497      1.0        1
     180.000       10.229      1.0        1
      -0.000      225.495      1.0        1
      -0.000      446.708      1.0        1
       0.000      634.466      1.0        1
      -0.000      774.156      1.0        1
      -0.000      854.672      1.0        1
      -0.000      869.336      1.0        1
      -0.000      816.498      1.0        1
       0.000      699.758      1.0        1
      -0.000      527.776      1.0        1
      -0.000      313.686      1.0        1
       0.000       74.127      1.0        1
     180.000      170.015      1.0        1
     180.000      403.086      1.0        1
     180.000      604.234      1.0        1
     180.000      756.948      1.0        1
     180.000      848.448      1.0        1
     180.000      870.795      1.0        1
     180.000      821.632      1.0        1
     180.000      704.478      1.0        1
     180.000      528.540      1.0        1
     180.000      308.042      1.0        1
     180.000       61.121      1.0        1
       0.000      189.629      1.0        1
      -0.000      426.870      1.0        1
       0.000      628.313      1.0        1
      -0.000      776.481      1.0        1
       0.000      858.258      1.0        1
       0.000      866.099      1.0        1
      -0.000      798.781      1.0        1
      -0.000      661.622      1.0        1
       0.000      466.121      1.0        1
       0.000      229.059      1.0        1
     180.000       26.905      1.0        1
     180.000      283.002      1.0        1
     180.000      514.351      1.0        1
     180.000      700.020      1.0        1
     180.000      822.942      1.0        1
     180.000      871.533      1.0        1
     180.000      840.839      1.0        1
     180.000      733.101      1.0        1
     180.000      557.670      1.0        1
     180.000      330.263      1.0        1
     180.000       71.606      1.0        1
       0.000      192.414      1.0        1
       0.000      440.938      1.0        1
       0.000      648.461      1.0        1
       0.000      795.078      1.0        1
       0.000      866.441      1.0        1
       0.000      855.214      1.0        1
       0.000      761.898      1.0        1
       0.000      594.912      1.0        1
       0.000      369.900      1.0        1
       0.000      108.334      1.0        1
     180.000      162.495      1.0        1
     180.000      419.901      1.0        1
     180.000      636.409      1.0        1
     180.000      790.302      1.0        1
     180.000      865.848      1.0        1
     180.000      854.965      1.0        1
     180.000      758.157      1.0        1
     180.000      584.603      1.0        1
     180.000      351.362      1.0        1
     180.000       81.763      1.0        1
       0.000      194.886      1.0        1
       0.000      454.038      1.0        1
       0.000      666.838      1.0        1
       0.000      810.931      1.0        1
       0.000      870.868      1.0        1
       0.000      839.823      1.0        1
       0.000      720.451      1.0        1
       0.000      524.757      1.0        1
       0.000      272.962      1.0        1
     180.000        6.515      1.0        1
     180.000      287.793      1.0        1
     180.000      538.682      1.0        1
     180.000      731.938      1.0        1
     180.000      846.260      1.0        1
     180.000      868.703      1.0        1
     180.000      796.218      1.0        1
     180.000      636.140      1.0        1
     180.000      405.539      1.0        1
     180.000      129.476      1.0        1
       0.000      159.665      1.0        1
       0.000      433.486      1.0        1
       0.000      659.184      1.0        1
       0.000      811.044      1.0        1
       0.000      871.428      1.0        1
       0.000      832.896      1.0        1
       0.000      699.213      1.0        1
       0.000      485.084      1.0        1
       0.000      214.624      1.0        1
     180.000       79.290      1.0        1
     180.000      366.501      1.0        1
     180.000      611.505      1.0        1
     180.000      785.383      1.0        1
     180.000      867.270      1.0        1
     180.000      846.934      1.0        1
     180.000      726.148      1.0        1
     180.000      518.650      1.0        1
     180.000      248.684      1.0        1
       0.000       49.765      1.0        1
       0.000      344.704      1.0        1
       0.000      598.439      1.0        1
       0.000      779.908      1.0        1
       0.000      866.545      1.0        1
       0.000      847.163      1.0        1
       0.000      723.497      1.0        1
       0.000      510.175      1.0        1
       0.000      233.089      1.0        1
     180.000       71.669      1.0        1
     180.000      369.953      1.0        1
     180.000      622.292      1.0        1
     180.000      796.624      1.0        1
     180.000      870.433      1.0        1
     180.000      833.744      1.0        1
     180.000      690.572      1.0        1
     180.000      458.608      1.0        1
     180.000      167.131      1.0        1
       0.000      144.601      1.0        1
       0.000      440.077      1.0        1
       0.000      678.760      1.0        1
       0.000      829.145      1.0        1
       0.000      870.995      1.0        1
       0.000      798.163      1.0        1
       0.000      619.600      1.0        1
       0.000      358.373      1.0        1
       0.000       48.790      1.0        1
     180.000      266.036      1.0        1
     180.000      547.619      1.0        1
     180.000      755.808      1.0        1
     180.000      862.012      1.0        1
     180.000      851.216      1.0        1
     180.000      724.216      1.0        1
     180.000      497.724      1.0        1
     180.000      202.288      1.0        1
       0.000      119.737      1.0        1
       0.000      427.647      1.0        1
       0.000      676.550      1.0        1
       0.000      831.380      1.0        1
       0.000      869.911      1.0        1
       0.000      786.066      1.0        1
       0.000      590.984      1.0        1
       0.000      311.676      1.0        1
     180.000       10.611      1.0        1
     180.000      333.833      1.0        1
     180.000      609.664      1.0        1
     180.000      798.161      1.0        1
     180.000      871.616      1.0        1
     180.000      818.739      1.0        1
     180.000      646.517      1.0        1
     180.000      379.436      1.0        1
     180.000       56.114      1.0        1
       0.000      274.191      1.0        1
       0.000      566.456      1.0        1
       0.000      775.139      1.0        1
       0.000      868.732      1.0        1
       0.000      832.625      1.0        1
       0.000      671.517      1.0        1
       0.000      408.958      1.0        1
       0.000       84.039      1.0        1
     180.000      252.342      1.0        1
     180.000      552.787      1.0        1
     180.000      769.224      1.0        1
     180.000      868.032      1.0        1
     180.000      833.380      1.0        1
     180.000      669.893      1.0        1
     180.000      402.202      1.0        1
     180.000       71.363      1.0        1
       0.000      269.343      1.0        1
       0.000      570.309      1.0        1
       0.000      782.013      1.0        1
       0.000      870.583      1.0        1
       0.000      821.342      1.0        1
       0.000      641.379      1.0        1
       0.000      358.692      1.0        1
       0.000       17.969      1.0        1
     180.000      324.383      1.0        1
     180.000      616.888      1.0        1
     180.000      809.966      1.0        1
     180.000      871.756      1.0        1
     180.000      791.504      1.0        1
     180.000      581.582      1.0        1
     180.000      275.746      1.0        1
       0.000       74.159      1.0        1
       0.000      414.242      1.0        1
       0.000      686.063      1.0        1
       0.000      844.048      1.0        1
       0.000      861.233      1.0        1
       0.000      734.010      1.0        1
       0.000      483.019      1.0        1
       0.000      149.965      1.0        1
     180.000      207.197      1.0        1
     180.000      531.589      1.0        1
     180.000      765.739      1.0        1
     180.000      869.134      1.0        1
     180.000      823.359      1.0        1
     180.000      635.538      1.0        1
     180.000      337.407      1.0        1
       0.000       17.895      1.0        1
       0.000      372.492      1.0        1
       0.000      662.457      1.0        1
       0.000      836.662      1.0        1
       0.000      863.897      1.0        1
       0.000      738.618      1.0        1
       0.000      482.233      1.0        1
       0.000      139.618      1.0        1
     180.000      226.606      1.0        1
     180.000      554.729      1.0        1
     180.000      783.683      1.0        1
     180.000      871.762      1.0        1
     180.000      802.358      1.0        1
     180.000      587.266      1.0        1
     180.000      264.874      1.0        1
      -0.000      104.533      1.0        1
       0.000      457.213      1.0        1
      -0.000      726.303      1.0        1
      -0.000      861.810      1.0        1
      -0.000      838.024      1.0        1
      -0.000      658.579      1.0        1
      -0.000      356.108      1.0        1
     180.000       11.513      1.0        1
     180.000      379.369      1.0        1
     180.000      676.313      1.0        1
     180.000      846.006      1.0        1
     180.000      855.729      1.0        1
     180.000      702.862      1.0        1
     180.000      415.730      1.0        1
     180.000       48.541      1.0        1
      -0.000      326.710      1.0        1
      -0.000      641.530      1.0        1
      -0.000      832.883      1.0        1
      -0.000      863.145      1.0        1
      -0.000      725.669      1.0        1
      -0.000      446.435      1.0        1
      -0.000       79.338      1.0        1
     180.000      302.069      1.0        1
     180.000      626.453      1.0        1
     180.000      827.528      1.0        1
     180.000      864.909      1.0        1
     180.000      730.401      1.0        1
     180.000      449.988      1.0        1
     180.000       79.026      1.0        1
      -0.000      306.538      1.0        1
      -0.000      632.833      1.0        1
      -0.000      831.741      1.0        1
      -0.000      862.406      1.0        1
      -0.000      717.818      1.0        1
      -0.000      426.611      1.0        1
      -0.000       47.604      1.0        1
     180.000      339.929      1.0        1
     180.000      659.944      1.0        1
     180.000      844.116      1.0        1
     180.000      853.714      1.0        1
     180.000      685.942      1.0        1
     180.000      374.912      1.0        1
      -0.000       13.078      1.0        1
      -0.000      400.691      1.0        1
      -0.000      704.463      1.0        1
      -0.000      859.979      1.0        1
      -0.000      833.681      1.0        1
      -0.000      630.317      1.0        1
      -0.000      292.350      1.0        1
     180.000      106.708      1.0        1
     180.000      485.291      1.0        1
     180.000      760.010      1.0        1
     180.000      871.228      1.0        1
     180.000      794.180      1.0        1
     180.000      544.717      1.0        1
     180.000      176.285      1.0        1
      -0.000      229.325      1.0        1
      -0.000      587.152      1.0        1
      -0.000      816.487      1.0        1
      -0.000      866.302      1.0        1
      -0.000      724.803      1.0        1
      -0.000      422.460      1.0        1
      -0.000       25.680      1.0        1
     180.000      375.601      1.0        1
     180.000      695.344      1.0        1
     180.000      859.551      1.0        1
     180.000      830.642      1.0        1
     180.000      614.281      1.0        1
     180.000      258.549      1.0        1
      -0.000      154.520      1.0        1
      -0.000      534.808      1.0        1
      -0.000      793.436      1.0        1
      -0.000      870.717      1.0        1
      -0.000      748.132      1.0        1
      -0.000      453.015      1.0        1
      -0.000       52.720      1.0        1
     180.000      358.561      1.0        1
     180.000      688.950      1.0        1
     180.000      859.170      1.0        1
     180.000      828.784      1.0        1
     180.000      604.043      1.0        1
     180.000      236.895      1.0        1
      -0.000      184.791      1.0        1
      -0.000      565.165      1.0        1
      -0.000      811.922      1.0        1
      -0.000      865.858      1.0        1
      -0.000      713.295      1.0        1
      -0.000      389.817      1.0        1
     180.000       25.771      1.0        1
     180.000      437.488      1.0        1
     180.000      744.055      1.0        1
     180.000      870.909      1.0        1
     180.000      786.532      1.0        1
     180.000      510.550      1.0        1
     180.000      109.455      1.0        1
      -0.000      317.187      1.0        1
      -0.000      668.366      1.0        1
      -0.000      855.383      1.0        1
      -0.000      831.421      1.0        1
      -0.000      601.525      1.0        1
      -0.000      221.865      1.0        1
     180.000      211.738      1.0        1
     180.000      594.846      1.0        1
     180.000      829.396      1.0        1
     180.000      855.927      1.0        1
     180.000      666.903      1.0        1
     180.000      309.123      1.0        1
      -0.000      125.587      1.0        1
      -0.000      530.752      1.0        1
      -0.000      801.154      1.0        1
      -0.000      867.250      1.0        1
      -0.000      711.288      1.0        1
      -0.000      372.377      1.0        1
     180.000       61.037      1.0        1
     180.000      481.009      1.0        1
     180.000      776.821      1.0        1
     180.000      871.224      1.0        1
     180.000      738.841      1.0        1
     180.000      413.285      1.0        1
      -0.000       19.061      1.0        1
      -0.000      448.702      1.0        1
      -0.000      760.605      1.0        1
      -0.000      872.027      1.0        1
      -0.000      752.692      1.0        1
      -0.000      433.320      1.0        1
     180.000        0.000      1.0        1
     180.000      435.532      1.0        1
     180.000      754.934      1.0        1
     180.000      872.061      1.0        1
