# Pbox  30000.00  34 4095  0.0     0    1.0000 1.44091     6
# VJ4.2  pw (us)  pwr  pwrf  dres  dmf  dcyc   B1max (kHz)  Stype
# ---------------------------------------------------------------
# Pxsim 0.0300000 1319.9453 0.000 184729.2 0.0000000 0.0000000 0.00
# data: pw (s) B1max (Hz) status sw (Hz) T1 (s)   T2 (s) RDC (Hz)
# ---------------------------------------------------------------
# Pbox.inp data :
# ~~~~~~~~~~~~~~~~~~~~~~~~~~~Waves~~~~~~~~~~~~~~~~~~~~~~~~~~~~~~~~~~
#   shape   bw(/pw)   ofs  st  ph  fla  trev  d1  d2   d0   wrp  php
# ~~~~~~~~~~~~~~~~~~~~~~~~~~~~~~~~~~~~~~~~~~~~~~~~~~~~~~~~~~~~~~~~~~
# { wurst2i 30788.2/0.0300000 }
#
# type      = r          mod       = n          dres      = n         
# steps     = n          stepsize  = 10.00      attn      = i         
# refofs    = n          wrap      = n          sfrq      = n         
# sucyc     = d          reps      = 2          header    = y         
# bscor     = n          pad1      = n          pad2      = n         
# bsim      = n          T1        = n          T2        = n         
# rdc       = n          dcyc      = n          sw        = n         
#
# RF Calibration Data :  ref_pwr   = 61         ref_pw90  = 7.75
# ~~~~~~~~~~~~~~~~~~~~~
###
# ------------------- Shape data ------------------
# pwtot      = 0.0300000 (total pw, s)
# power      = 34 (power level, dB)
# pwrf       = 4095 (fine power)
# B1max      = 1.4409 (B1max, kHz)
# B1rms      = 0.8082 (B1[RMS], kHz)
# nptot      = 3000 (total number of steps)
# stepsize   = 10.00 (length of a single step, us)
# maxamp     = 938.0 (max amplitude)
# ------------------------------------------------- 
#      phase      amplitude   length     gate 
# ------------------------------------------------- 
        0.00      1023.00      0.0        0
       0.000        0.000      1.0        0
     110.990        0.000      1.0        0
     166.427        0.000      1.0        0
     221.864        0.000      1.0        0
     277.302        0.000      1.0        0
     332.739        0.000      1.0        0
      28.176        0.000      1.0        0
      83.613        0.000      1.0        0
     139.050        0.000      1.0        0
     194.488        0.000      1.0        0
     249.925        0.000      1.0        0
     305.362        0.000      1.0        0
       0.799        0.000      1.0        0
      56.237        0.000      1.0        0
     111.674        0.000      1.0        0
     167.111        0.000      1.0        0
     222.548        0.000      1.0        0
     277.986        0.000      1.0        0
     333.423        0.000      1.0        0
      28.860        0.000      1.0        0
      84.297        0.000      1.0        0
     139.735        0.000      1.0        0
     195.172        0.000      1.0        0
     250.609        0.000      1.0        1
     306.046        0.000      1.0        1
       1.484        0.000      1.0        1
      56.921        0.000      1.0        1
     112.358        0.000      1.0        1
     167.795        0.000      1.0        1
     223.232        0.000      1.0        1
     278.670        0.000      1.0        1
     334.107        0.000      1.0        1
      29.544        0.054      1.0        1
      84.981        0.121      1.0        1
     140.419        0.189      1.0        1
     195.856        0.260      1.0        1
     251.293        0.333      1.0        1
     306.730        0.408      1.0        1
       2.168        0.486      1.0        1
      57.605        0.565      1.0        1
     113.042        0.646      1.0        1
     168.479        0.729      1.0        1
     223.917        0.815      1.0        1
     279.354        0.902      1.0        1
     334.791        0.991      1.0        1
      30.228        1.083      1.0        1
      85.666        1.176      1.0        1
     141.103        1.272      1.0        1
     196.540        1.370      1.0        1
     251.977        1.469      1.0        1
     307.414        1.571      1.0        1
       2.852        1.675      1.0        1
      58.289        1.781      1.0        1
     113.726        1.888      1.0        1
     169.163        1.998      1.0        1
     224.601        2.110      1.0        1
     280.038        2.224      1.0        1
     335.475        2.340      1.0        1
      30.912        2.458      1.0        1
      86.350        2.579      1.0        1
     141.787        2.701      1.0        1
     197.224        2.825      1.0        1
     252.661        2.951      1.0        1
     308.098        3.080      1.0        1
       3.536        3.210      1.0        1
      58.973        3.342      1.0        1
     114.410        3.477      1.0        1
     169.847        3.613      1.0        1
     225.284        3.752      1.0        1
     280.722        3.892      1.0        1
     336.159        4.035      1.0        1
      31.596        4.179      1.0        1
      87.033        4.326      1.0        1
     142.470        4.475      1.0        1
     197.908        4.625      1.0        1
     253.345        4.778      1.0        1
     308.782        4.933      1.0        1
       4.219        5.090      1.0        1
      59.656        5.249      1.0        1
     115.093        5.410      1.0        1
     170.531        5.572      1.0        1
     225.968        5.737      1.0        1
     281.405        5.904      1.0        1
     336.842        6.073      1.0        1
      32.279        6.244      1.0        1
      87.716        6.417      1.0        1
     143.154        6.593      1.0        1
     198.591        6.770      1.0        1
     254.028        6.949      1.0        1
     309.465        7.130      1.0        1
       4.902        7.313      1.0        1
      60.339        7.498      1.0        1
     115.776        7.686      1.0        1
     171.213        7.875      1.0        1
     226.650        8.066      1.0        1
     282.087        8.259      1.0        1
     337.524        8.455      1.0        1
      32.961        8.652      1.0        1
      88.399        8.851      1.0        1
     143.836        9.053      1.0        1
     199.273        9.256      1.0        1
     254.710        9.461      1.0        1
     310.147        9.669      1.0        1
       5.583        9.878      1.0        1
      61.020       10.090      1.0        1
     116.457       10.303      1.0        1
     171.894       10.518      1.0        1
     227.331       10.736      1.0        1
     282.768       10.955      1.0        1
     338.205       11.177      1.0        1
      33.642       11.400      1.0        1
      89.079       11.626      1.0        1
     144.516       11.853      1.0        1
     199.952       12.083      1.0        1
     255.389       12.314      1.0        1
     310.826       12.547      1.0        1
       6.263       12.783      1.0        1
      61.699       13.020      1.0        1
     117.136       13.260      1.0        1
     172.573       13.501      1.0        1
     228.010       13.745      1.0        1
     283.446       13.990      1.0        1
     338.883       14.238      1.0        1
      34.319       14.487      1.0        1
      89.756       14.739      1.0        1
     145.192       14.992      1.0        1
     200.629       15.247      1.0        1
     256.065       15.505      1.0        1
     311.502       15.764      1.0        1
       6.938       16.025      1.0        1
      62.375       16.289      1.0        1
     117.811       16.554      1.0        1
     173.247       16.821      1.0        1
     228.684       17.091      1.0        1
     284.120       17.362      1.0        1
     339.556       17.635      1.0        1
      34.992       17.910      1.0        1
      90.428       18.188      1.0        1
     145.864       18.467      1.0        1
     201.300       18.748      1.0        1
     256.736       19.031      1.0        1
     312.172       19.316      1.0        1
       7.608       19.603      1.0        1
      63.044       19.892      1.0        1
     118.480       20.183      1.0        1
     173.916       20.476      1.0        1
     229.351       20.771      1.0        1
     284.787       21.068      1.0        1
     340.223       21.367      1.0        1
      35.658       21.668      1.0        1
      91.094       21.970      1.0        1
     146.529       22.275      1.0        1
     201.965       22.582      1.0        1
     257.400       22.891      1.0        1
     312.835       23.201      1.0        1
       8.270       23.514      1.0        1
      63.705       23.828      1.0        1
     119.140       24.145      1.0        1
     174.575       24.463      1.0        1
     230.010       24.783      1.0        1
     285.445       25.106      1.0        1
     340.880       25.430      1.0        1
      36.314       25.756      1.0        1
      91.749       26.084      1.0        1
     147.184       26.414      1.0        1
     202.618       26.746      1.0        1
     258.052       27.080      1.0        1
     313.487       27.416      1.0        1
       8.921       27.754      1.0        1
      64.355       28.094      1.0        1
     119.789       28.435      1.0        1
     175.223       28.779      1.0        1
     230.656       29.124      1.0        1
     286.090       29.472      1.0        1
     341.524       29.821      1.0        1
      36.957       30.172      1.0        1
      92.390       30.526      1.0        1
     147.824       30.881      1.0        1
     203.257       31.238      1.0        1
     258.690       31.597      1.0        1
     314.123       31.958      1.0        1
       9.555       32.320      1.0        1
      64.988       32.685      1.0        1
     120.421       33.052      1.0        1
     175.853       33.420      1.0        1
     231.285       33.791      1.0        1
     286.717       34.163      1.0        1
     342.149       34.537      1.0        1
      37.581       34.914      1.0        1
      93.013       35.292      1.0        1
     148.444       35.672      1.0        1
     203.876       36.053      1.0        1
     259.307       36.437      1.0        1
     314.738       36.823      1.0        1
      10.169       37.210      1.0        1
      65.600       37.600      1.0        1
     121.030       37.991      1.0        1
     176.461       38.384      1.0        1
     231.891       38.779      1.0        1
     287.321       39.176      1.0        1
     342.751       39.575      1.0        1
      38.181       39.976      1.0        1
      93.610       40.379      1.0        1
     149.040       40.783      1.0        1
     204.469       41.189      1.0        1
     259.898       41.598      1.0        1
     315.326       42.008      1.0        1
      10.755       42.420      1.0        1
      66.183       42.834      1.0        1
     121.611       43.249      1.0        1
     177.039       43.667      1.0        1
     232.467       44.086      1.0        1
     287.894       44.508      1.0        1
     343.321       44.931      1.0        1
      38.748       45.356      1.0        1
      94.175       45.783      1.0        1
     149.602       46.211      1.0        1
     205.028       46.642      1.0        1
     260.454       47.074      1.0        1
     315.879       47.509      1.0        1
      11.305       47.945      1.0        1
      66.730       48.383      1.0        1
     122.155       48.823      1.0        1
     177.580       49.264      1.0        1
     233.004       49.708      1.0        1
     288.428       50.153      1.0        1
     343.852       50.600      1.0        1
      39.275       51.049      1.0        1
      94.698       51.500      1.0        1
     150.121       51.953      1.0        1
     205.544       52.407      1.0        1
     260.966       52.864      1.0        1
     316.388       53.322      1.0        1
      11.809       53.782      1.0        1
      67.231       54.243      1.0        1
     122.652       54.707      1.0        1
     178.072       55.172      1.0        1
     233.492       55.640      1.0        1
     288.912       56.109      1.0        1
     344.331       56.579      1.0        1
      39.751       57.052      1.0        1
      95.169       57.526      1.0        1
     150.588       58.003      1.0        1
     206.006       58.481      1.0        1
     261.423       58.961      1.0        1
     316.840       59.442      1.0        1
      12.257       59.926      1.0        1
      67.673       60.411      1.0        1
     123.089       60.898      1.0        1
     178.505       61.387      1.0        1
     233.920       61.877      1.0        1
     289.334       62.370      1.0        1
     344.748       62.864      1.0        1
      40.162       63.360      1.0        1
      95.575       63.857      1.0        1
     150.988       64.357      1.0        1
     206.400       64.858      1.0        1
     261.812       65.361      1.0        1
     317.223       65.866      1.0        1
      12.634       66.372      1.0        1
      68.044       66.881      1.0        1
     123.454       67.391      1.0        1
     178.863       67.902      1.0        1
     234.272       68.416      1.0        1
     289.680       68.931      1.0        1
     345.088       69.448      1.0        1
      40.495       69.967      1.0        1
      95.901       70.488      1.0        1
     151.307       71.010      1.0        1
     206.712       71.534      1.0        1
     262.117       72.060      1.0        1
     317.521       72.588      1.0        1
      12.925       73.117      1.0        1
      68.328       73.648      1.0        1
     123.730       74.181      1.0        1
     179.132       74.715      1.0        1
     234.533       75.251      1.0        1
     289.933       75.789      1.0        1
     345.333       76.329      1.0        1
      40.732       76.870      1.0        1
      96.130       77.413      1.0        1
     151.528       77.958      1.0        1
     206.925       78.505      1.0        1
     262.321       79.053      1.0        1
     317.717       79.603      1.0        1
      13.111       80.154      1.0        1
      68.506       80.708      1.0        1
     123.899       81.263      1.0        1
     179.291       81.820      1.0        1
     234.683       82.378      1.0        1
     290.074       82.938      1.0        1
     345.465       83.500      1.0        1
      40.854       84.063      1.0        1
      96.243       84.629      1.0        1
     151.630       85.195      1.0        1
     207.017       85.764      1.0        1
     262.403       86.334      1.0        1
     317.789       86.906      1.0        1
      13.173       87.480      1.0        1
      68.557       88.055      1.0        1
     123.939       88.632      1.0        1
     179.321       89.210      1.0        1
     234.702       89.791      1.0        1
     290.082       90.373      1.0        1
     345.461       90.956      1.0        1
      40.839       91.541      1.0        1
      96.216       92.128      1.0        1
     151.592       92.717      1.0        1
     206.967       93.307      1.0        1
     262.341       93.899      1.0        1
     317.714       94.492      1.0        1
      13.086       95.087      1.0        1
      68.457       95.684      1.0        1
     123.827       96.282      1.0        1
     179.196       96.882      1.0        1
     234.564       97.484      1.0        1
     289.931       98.087      1.0        1
     345.297       98.692      1.0        1
      40.661       99.299      1.0        1
      96.025       99.907      1.0        1
     151.387      100.516      1.0        1
     206.748      101.128      1.0        1
     262.108      101.741      1.0        1
     317.467      102.355      1.0        1
      12.824      102.971      1.0        1
      68.181      103.589      1.0        1
     123.536      104.208      1.0        1
     178.890      104.829      1.0        1
     234.243      105.452      1.0        1
     289.594      106.076      1.0        1
     344.944      106.702      1.0        1
      40.293      107.329      1.0        1
      95.640      107.958      1.0        1
     150.987      108.589      1.0        1
     206.331      109.221      1.0        1
     261.675      109.854      1.0        1
     317.017      110.490      1.0        1
      12.358      111.126      1.0        1
      67.697      111.765      1.0        1
     123.035      112.405      1.0        1
     178.371      113.046      1.0        1
     233.706      113.689      1.0        1
     289.040      114.334      1.0        1
     344.372      114.980      1.0        1
      39.702      115.627      1.0        1
      95.031      116.277      1.0        1
     150.358      116.927      1.0        1
     205.684      117.580      1.0        1
     261.009      118.234      1.0        1
     316.331      118.889      1.0        1
      11.652      119.546      1.0        1
      66.972      120.204      1.0        1
     122.290      120.864      1.0        1
     177.606      121.526      1.0        1
     232.920      122.189      1.0        1
     288.233      122.853      1.0        1
     343.544      123.519      1.0        1
      38.853      124.187      1.0        1
      94.161      124.856      1.0        1
     149.467      125.527      1.0        1
     204.771      126.199      1.0        1
     260.073      126.872      1.0        1
     315.373      127.547      1.0        1
      10.672      128.224      1.0        1
      65.968      128.902      1.0        1
     121.263      129.582      1.0        1
     176.556      130.263      1.0        1
     231.847      130.945      1.0        1
     287.136      131.629      1.0        1
     342.423      132.315      1.0        1
      37.707      133.002      1.0        1
      92.990      133.690      1.0        1
     148.271      134.380      1.0        1
     203.550      135.071      1.0        1
     258.827      135.764      1.0        1
     314.102      136.458      1.0        1
       9.374      137.154      1.0        1
      64.645      137.851      1.0        1
     119.913      138.550      1.0        1
     175.179      139.250      1.0        1
     230.443      139.952      1.0        1
     285.705      140.655      1.0        1
     340.964      141.359      1.0        1
      36.221      142.065      1.0        1
      91.476      142.772      1.0        1
     146.729      143.481      1.0        1
     201.979      144.191      1.0        1
     257.227      144.902      1.0        1
     312.472      145.615      1.0        1
       7.715      146.330      1.0        1
      62.956      147.046      1.0        1
     118.194      147.763      1.0        1
     173.430      148.481      1.0        1
     228.663      149.201      1.0        1
     283.894      149.923      1.0        1
     339.122      150.646      1.0        1
      34.347      151.370      1.0        1
      89.570      152.095      1.0        1
     144.790      152.822      1.0        1
     200.008      153.551      1.0        1
     255.223      154.280      1.0        1
     310.435      155.012      1.0        1
       5.645      155.744      1.0        1
      60.852      156.478      1.0        1
     116.056      157.213      1.0        1
     171.257      157.950      1.0        1
     226.455      158.688      1.0        1
     281.651      159.427      1.0        1
     336.843      160.168      1.0        1
      32.033      160.910      1.0        1
      87.220      161.653      1.0        1
     142.404      162.398      1.0        1
     197.584      163.144      1.0        1
     252.762      163.891      1.0        1
     307.937      164.640      1.0        1
       3.109      165.390      1.0        1
      58.277      166.141      1.0        1
     113.443      166.894      1.0        1
     168.605      167.648      1.0        1
     223.764      168.403      1.0        1
     278.920      169.160      1.0        1
     334.073      169.918      1.0        1
      29.222      170.677      1.0        1
      84.368      171.438      1.0        1
     139.511      172.200      1.0        1
     194.650      172.963      1.0        1
     249.786      173.727      1.0        1
     304.919      174.493      1.0        1
       0.048      175.260      1.0        1
      55.174      176.029      1.0        1
     110.296      176.798      1.0        1
     165.414      177.569      1.0        1
     220.529      178.341      1.0        1
     275.641      179.115      1.0        1
     330.749      179.889      1.0        1
      25.853      180.665      1.0        1
      80.953      181.443      1.0        1
     136.050      182.221      1.0        1
     191.143      183.001      1.0        1
     246.232      183.782      1.0        1
     301.317      184.564      1.0        1
     356.399      185.348      1.0        1
      51.476      186.132      1.0        1
     106.550      186.918      1.0        1
     161.619      187.706      1.0        1
     216.685      188.494      1.0        1
     271.747      189.284      1.0        1
     326.804      190.075      1.0        1
      21.858      190.867      1.0        1
      76.907      191.660      1.0        1
     131.952      192.455      1.0        1
     186.993      193.250      1.0        1
     242.030      194.047      1.0        1
     297.063      194.845      1.0        1
     352.091      195.645      1.0        1
      47.115      196.445      1.0        1
     102.135      197.247      1.0        1
     157.150      198.050      1.0        1
     212.160      198.854      1.0        1
     267.167      199.659      1.0        1
     322.168      200.466      1.0        1
      17.165      201.274      1.0        1
      72.158      202.082      1.0        1
     127.146      202.892      1.0        1
     182.129      203.704      1.0        1
     237.108      204.516      1.0        1
     292.082      205.329      1.0        1
     347.051      206.144      1.0        1
      42.015      206.960      1.0        1
      96.975      207.777      1.0        1
     151.929      208.595      1.0        1
     206.879      209.414      1.0        1
     261.824      210.234      1.0        1
     316.763      211.056      1.0        1
      11.698      211.878      1.0        1
      66.628      212.702      1.0        1
     121.552      213.527      1.0        1
     176.471      214.353      1.0        1
     231.385      215.180      1.0        1
     286.294      216.008      1.0        1
     341.198      216.837      1.0        1
      36.096      217.668      1.0        1
      90.989      218.499      1.0        1
     145.877      219.332      1.0        1
     200.759      220.166      1.0        1
     255.635      221.000      1.0        1
     310.506      221.836      1.0        1
       5.372      222.673      1.0        1
      60.232      223.511      1.0        1
     115.086      224.350      1.0        1
     169.935      225.190      1.0        1
     224.777      226.032      1.0        1
     279.614      226.874      1.0        1
     334.446      227.717      1.0        1
      29.271      228.562      1.0        1
      84.091      229.407      1.0        1
     138.904      230.254      1.0        1
     193.712      231.101      1.0        1
     248.513      231.950      1.0        1
     303.309      232.799      1.0        1
     358.098      233.650      1.0        1
      52.881      234.502      1.0        1
     107.658      235.354      1.0        1
     162.429      236.208      1.0        1
     217.193      237.063      1.0        1
     271.951      237.918      1.0        1
     326.703      238.775      1.0        1
      21.448      239.633      1.0        1
      76.186      240.492      1.0        1
     130.918      241.351      1.0        1
     185.644      242.212      1.0        1
     240.363      243.074      1.0        1
     295.075      243.937      1.0        1
     349.781      244.800      1.0        1
      44.480      245.665      1.0        1
      99.171      246.531      1.0        1
     153.857      247.397      1.0        1
     208.535      248.265      1.0        1
     263.206      249.134      1.0        1
     317.870      250.003      1.0        1
      12.527      250.874      1.0        1
      67.177      251.745      1.0        1
     121.820      252.618      1.0        1
     176.456      253.491      1.0        1
     231.084      254.365      1.0        1
     285.705      255.240      1.0        1
     340.319      256.117      1.0        1
      34.925      256.994      1.0        1
      89.524      257.872      1.0        1
     144.116      258.751      1.0        1
     198.700      259.631      1.0        1
     253.276      260.511      1.0        1
     307.844      261.393      1.0        1
       2.405      262.276      1.0        1
      56.958      263.159      1.0        1
     111.503      264.043      1.0        1
     166.041      264.929      1.0        1
     220.570      265.815      1.0        1
     275.092      266.702      1.0        1
     329.605      267.590      1.0        1
      24.111      268.479      1.0        1
      78.608      269.369      1.0        1
     133.097      270.259      1.0        1
     187.578      271.151      1.0        1
     242.050      272.043      1.0        1
     296.514      272.936      1.0        1
     350.970      273.830      1.0        1
      45.417      274.725      1.0        1
      99.856      275.621      1.0        1
     154.286      276.517      1.0        1
     208.708      277.415      1.0        1
     263.120      278.313      1.0        1
     317.525      279.212      1.0        1
      11.920      280.112      1.0        1
      66.306      281.013      1.0        1
     120.684      281.914      1.0        1
     175.053      282.817      1.0        1
     229.412      283.720      1.0        1
     283.763      284.624      1.0        1
     338.104      285.529      1.0        1
      32.436      286.434      1.0        1
      86.759      287.341      1.0        1
     141.072      288.248      1.0        1
     195.377      289.156      1.0        1
     249.671      290.064      1.0        1
     303.957      290.974      1.0        1
     358.232      291.884      1.0        1
      52.499      292.795      1.0        1
     106.755      293.707      1.0        1
     161.002      294.620      1.0        1
     215.239      295.533      1.0        1
     269.466      296.447      1.0        1
     323.683      297.362      1.0        1
      17.890      298.278      1.0        1
      72.087      299.194      1.0        1
     126.274      300.112      1.0        1
     180.451      301.029      1.0        1
     234.618      301.948      1.0        1
     288.774      302.867      1.0        1
     342.920      303.787      1.0        1
      37.056      304.708      1.0        1
      91.181      305.630      1.0        1
     145.295      306.552      1.0        1
     199.399      307.475      1.0        1
     253.493      308.399      1.0        1
     307.575      309.323      1.0        1
       1.647      310.248      1.0        1
      55.708      311.174      1.0        1
     109.758      312.100      1.0        1
     163.797      313.027      1.0        1
     217.825      313.955      1.0        1
     271.842      314.883      1.0        1
     325.848      315.812      1.0        1
      19.843      316.742      1.0        1
      73.826      317.673      1.0        1
     127.798      318.604      1.0        1
     181.758      319.536      1.0        1
     235.707      320.468      1.0        1
     289.644      321.401      1.0        1
     343.570      322.335      1.0        1
      37.484      323.269      1.0        1
      91.386      324.204      1.0        1
     145.276      325.140      1.0        1
     199.154      326.076      1.0        1
     253.021      327.013      1.0        1
     306.875      327.950      1.0        1
       0.717      328.888      1.0        1
      54.547      329.827      1.0        1
     108.365      330.766      1.0        1
     162.170      331.706      1.0        1
     215.963      332.647      1.0        1
     269.744      333.588      1.0        1
     323.512      334.530      1.0        1
      17.267      335.472      1.0        1
      71.010      336.415      1.0        1
     124.740      337.358      1.0        1
     178.457      338.302      1.0        1
     232.161      339.247      1.0        1
     285.852      340.192      1.0        1
     339.531      341.138      1.0        1
      33.196      342.084      1.0        1
      86.848      343.031      1.0        1
     140.486      343.978      1.0        1
     194.112      344.926      1.0        1
     247.723      345.875      1.0        1
     301.322      346.824      1.0        1
     354.907      347.773      1.0        1
      48.478      348.723      1.0        1
     102.035      349.674      1.0        1
     155.579      350.625      1.0        1
     209.109      351.576      1.0        1
     262.625      352.529      1.0        1
     316.127      353.481      1.0        1
       9.615      354.434      1.0        1
      63.089      355.388      1.0        1
     116.548      356.342      1.0        1
     169.993      357.297      1.0        1
     223.424      358.252      1.0        1
     276.840      359.207      1.0        1
     330.242      360.163      1.0        1
      23.629      361.120      1.0        1
      77.002      362.077      1.0        1
     130.359      363.034      1.0        1
     183.702      363.992      1.0        1
     237.030      364.951      1.0        1
     290.343      365.910      1.0        1
     343.641      366.869      1.0        1
      36.924      367.829      1.0        1
      90.191      368.789      1.0        1
     143.443      369.749      1.0        1
     196.680      370.710      1.0        1
     249.901      371.672      1.0        1
     303.107      372.634      1.0        1
     356.297      373.596      1.0        1
      49.471      374.559      1.0        1
     102.630      375.522      1.0        1
     155.773      376.485      1.0        1
     208.899      377.449      1.0        1
     262.010      378.414      1.0        1
     315.104      379.378      1.0        1
       8.183      380.344      1.0        1
      61.245      381.309      1.0        1
     114.290      382.275      1.0        1
     167.319      383.241      1.0        1
     220.332      384.208      1.0        1
     273.328      385.175      1.0        1
     326.307      386.142      1.0        1
      19.270      387.110      1.0        1
      72.215      388.078      1.0        1
     125.144      389.046      1.0        1
     178.056      390.015      1.0        1
     230.950      390.984      1.0        1
     283.827      391.954      1.0        1
     336.687      392.924      1.0        1
      29.530      393.894      1.0        1
      82.355      394.864      1.0        1
     135.162      395.835      1.0        1
     187.952      396.806      1.0        1
     240.724      397.777      1.0        1
     293.479      398.749      1.0        1
     346.215      399.721      1.0        1
      38.934      400.693      1.0        1
      91.634      401.666      1.0        1
     144.316      402.639      1.0        1
     196.980      403.612      1.0        1
     249.626      404.586      1.0        1
     302.253      405.559      1.0        1
     354.862      406.533      1.0        1
      47.452      407.508      1.0        1
     100.023      408.482      1.0        1
     152.575      409.457      1.0        1
     205.109      410.432      1.0        1
     257.624      411.407      1.0        1
     310.120      412.383      1.0        1
       2.596      413.359      1.0        1
      55.053      414.335      1.0        1
     107.491      415.311      1.0        1
     159.910      416.288      1.0        1
     212.309      417.264      1.0        1
     264.688      418.241      1.0        1
     317.048      419.219      1.0        1
       9.388      420.196      1.0        1
      61.708      421.174      1.0        1
     114.008      422.151      1.0        1
     166.288      423.129      1.0        1
     218.548      424.108      1.0        1
     270.788      425.086      1.0        1
     323.007      426.065      1.0        1
      15.206      427.043      1.0        1
      67.384      428.022      1.0        1
     119.542      429.002      1.0        1
     171.679      429.981      1.0        1
     223.795      430.960      1.0        1
     275.890      431.940      1.0        1
     327.964      432.920      1.0        1
      20.017      433.900      1.0        1
      72.049      434.880      1.0        1
     124.060      435.860      1.0        1
     176.049      436.840      1.0        1
     228.017      437.821      1.0        1
     279.963      438.802      1.0        1
     331.888      439.782      1.0        1
      23.791      440.763      1.0        1
      75.672      441.744      1.0        1
     127.531      442.726      1.0        1
     179.368      443.707      1.0        1
     231.182      444.688      1.0        1
     282.975      445.670      1.0        1
     334.745      446.651      1.0        1
      26.493      447.633      1.0        1
      78.218      448.615      1.0        1
     129.920      449.596      1.0        1
     181.600      450.578      1.0        1
     233.257      451.560      1.0        1
     284.891      452.542      1.0        1
     336.502      453.525      1.0        1
      28.090      454.507      1.0        1
      79.654      455.489      1.0        1
     131.195      456.471      1.0        1
     182.713      457.454      1.0        1
     234.207      458.436      1.0        1
     285.678      459.419      1.0        1
     337.124      460.401      1.0        1
      28.547      461.384      1.0        1
      79.946      462.366      1.0        1
     131.321      463.349      1.0        1
     182.672      464.331      1.0        1
     233.998      465.314      1.0        1
     285.300      466.296      1.0        1
     336.578      467.279      1.0        1
      27.831      468.262      1.0        1
      79.060      469.244      1.0        1
     130.263      470.227      1.0        1
     181.442      471.210      1.0        1
     232.596      472.192      1.0        1
     283.724      473.175      1.0        1
     334.828      474.157      1.0        1
      25.906      475.140      1.0        1
      76.959      476.122      1.0        1
     127.986      477.105      1.0        1
     178.988      478.087      1.0        1
     229.964      479.070      1.0        1
     280.914      480.052      1.0        1
     331.838      481.034      1.0        1
      22.736      482.017      1.0        1
      73.608      482.999      1.0        1
     124.454      483.981      1.0        1
     175.273      484.963      1.0        1
     226.066      485.945      1.0        1
     276.833      486.927      1.0        1
     327.572      487.908      1.0        1
      18.285      488.890      1.0        1
      68.971      489.872      1.0        1
     119.630      490.853      1.0        1
     170.262      491.835      1.0        1
     220.867      492.816      1.0        1
     271.444      493.797      1.0        1
     321.994      494.778      1.0        1
      12.517      495.759      1.0        1
      63.012      496.740      1.0        1
     113.479      497.721      1.0        1
     163.918      498.701      1.0        1
     214.329      499.682      1.0        1
     264.712      500.662      1.0        1
     315.067      501.642      1.0        1
       5.394      502.622      1.0        1
      55.692      503.602      1.0        1
     105.961      504.582      1.0        1
     156.202      505.562      1.0        1
     206.415      506.541      1.0        1
     256.598      507.520      1.0        1
     306.752      508.499      1.0        1
     356.878      509.478      1.0        1
      46.974      510.457      1.0        1
      97.041      511.435      1.0        1
     147.078      512.414      1.0        1
     197.086      513.392      1.0        1
     247.064      514.370      1.0        1
     297.013      515.347      1.0        1
     346.931      516.325      1.0        1
      36.820      517.302      1.0        1
      86.678      518.279      1.0        1
     136.507      519.256      1.0        1
     186.305      520.233      1.0        1
     236.072      521.209      1.0        1
     285.809      522.185      1.0        1
     335.515      523.161      1.0        1
      25.191      524.137      1.0        1
      74.836      525.112      1.0        1
     124.449      526.088      1.0        1
     174.032      527.063      1.0        1
     223.583      528.037      1.0        1
     273.103      529.012      1.0        1
     322.591      529.986      1.0        1
      12.048      530.960      1.0        1
      61.473      531.933      1.0        1
     110.866      532.907      1.0        1
     160.228      533.880      1.0        1
     209.557      534.852      1.0        1
     258.854      535.825      1.0        1
     308.119      536.797      1.0        1
     357.351      537.769      1.0        1
      46.551      538.740      1.0        1
      95.718      539.712      1.0        1
     144.853      540.683      1.0        1
     193.955      541.653      1.0        1
     243.023      542.624      1.0        1
     292.059      543.593      1.0        1
     341.061      544.563      1.0        1
      30.030      545.532      1.0        1
      78.965      546.501      1.0        1
     127.867      547.470      1.0        1
     176.735      548.438      1.0        1
     225.570      549.406      1.0        1
     274.370      550.374      1.0        1
     323.137      551.341      1.0        1
      11.869      552.308      1.0        1
      60.567      553.274      1.0        1
     109.230      554.240      1.0        1
     157.859      555.206      1.0        1
     206.453      556.171      1.0        1
     255.013      557.136      1.0        1
     303.537      558.101      1.0        1
     352.027      559.065      1.0        1
      40.481      560.029      1.0        1
      88.900      560.992      1.0        1
     137.284      561.955      1.0        1
     185.632      562.917      1.0        1
     233.945      563.879      1.0        1
     282.221      564.841      1.0        1
     330.462      565.802      1.0        1
      18.667      566.763      1.0        1
      66.836      567.724      1.0        1
     114.969      568.683      1.0        1
     163.065      569.643      1.0        1
     211.125      570.602      1.0        1
     259.148      571.561      1.0        1
     307.134      572.519      1.0        1
     355.084      573.477      1.0        1
      42.997      574.434      1.0        1
      90.872      575.391      1.0        1
     138.710      576.347      1.0        1
     186.511      577.303      1.0        1
     234.275      578.258      1.0        1
     282.001      579.213      1.0        1
     329.689      580.167      1.0        1
      17.339      581.121      1.0        1
      64.951      582.074      1.0        1
     112.526      583.027      1.0        1
     160.062      583.980      1.0        1
     207.559      584.932      1.0        1
     255.018      585.883      1.0        1
     302.439      586.834      1.0        1
     349.821      587.784      1.0        1
      37.164      588.734      1.0        1
      84.468      589.683      1.0        1
     131.733      590.632      1.0        1
     178.959      591.580      1.0        1
     226.145      592.528      1.0        1
     273.292      593.475      1.0        1
     320.400      594.421      1.0        1
       7.467      595.367      1.0        1
      54.495      596.313      1.0        1
     101.483      597.258      1.0        1
     148.431      598.202      1.0        1
     195.338      599.146      1.0        1
     242.205      600.089      1.0        1
     289.032      601.031      1.0        1
     335.818      601.973      1.0        1
      22.563      602.915      1.0        1
      69.268      603.856      1.0        1
     115.931      604.796      1.0        1
     162.553      605.736      1.0        1
     209.134      606.675      1.0        1
     255.674      607.613      1.0        1
     302.172      608.551      1.0        1
     348.629      609.488      1.0        1
      35.044      610.424      1.0        1
      81.417      611.360      1.0        1
     127.748      612.296      1.0        1
     174.036      613.230      1.0        1
     220.283      614.164      1.0        1
     266.487      615.098      1.0        1
     312.648      616.030      1.0        1
     358.767      616.963      1.0        1
      44.844      617.894      1.0        1
      90.877      618.825      1.0        1
     136.867      619.755      1.0        1
     182.814      620.684      1.0        1
     228.718      621.613      1.0        1
     274.578      622.541      1.0        1
     320.394      623.469      1.0        1
       6.167      624.395      1.0        1
      51.897      625.322      1.0        1
      97.582      626.247      1.0        1
     143.223      627.172      1.0        1
     188.820      628.096      1.0        1
     234.373      629.019      1.0        1
     279.881      629.941      1.0        1
     325.344      630.863      1.0        1
      10.763      631.784      1.0        1
      56.137      632.705      1.0        1
     101.466      633.624      1.0        1
     146.750      634.543      1.0        1
     191.988      635.462      1.0        1
     237.181      636.379      1.0        1
     282.329      637.296      1.0        1
     327.431      638.212      1.0        1
      12.487      639.127      1.0        1
      57.497      640.042      1.0        1
     102.462      640.956      1.0        1
     147.380      641.869      1.0        1
     192.251      642.781      1.0        1
     237.077      643.692      1.0        1
     281.855      644.603      1.0        1
     326.587      645.513      1.0        1
      11.273      646.422      1.0        1
      55.911      647.331      1.0        1
     100.502      648.238      1.0        1
     145.046      649.145      1.0        1
     189.543      650.051      1.0        1
     233.992      650.956      1.0        1
     278.393      651.861      1.0        1
     322.747      652.764      1.0        1
       7.053      653.667      1.0        1
      51.311      654.569      1.0        1
      95.520      655.470      1.0        1
     139.682      656.370      1.0        1
     183.794      657.270      1.0        1
     227.859      658.168      1.0        1
     271.875      659.066      1.0        1
     315.841      659.963      1.0        1
     359.759      660.859      1.0        1
      43.628      661.755      1.0        1
      87.448      662.649      1.0        1
     131.218      663.543      1.0        1
     174.939      664.436      1.0        1
     218.610      665.327      1.0        1
     262.232      666.218      1.0        1
     305.803      667.109      1.0        1
     349.325      667.998      1.0        1
      32.796      668.886      1.0        1
      76.217      669.774      1.0        1
     119.588      670.660      1.0        1
     162.908      671.546      1.0        1
     206.178      672.431      1.0        1
     249.396      673.315      1.0        1
     292.564      674.198      1.0        1
     335.681      675.080      1.0        1
      18.746      675.961      1.0        1
      61.760      676.842      1.0        1
     104.723      677.721      1.0        1
     147.634      678.600      1.0        1
     190.493      679.477      1.0        1
     233.301      680.354      1.0        1
     276.056      681.229      1.0        1
     318.759      682.104      1.0        1
       1.410      682.978      1.0        1
      44.009      683.851      1.0        1
      86.555      684.723      1.0        1
     129.048      685.594      1.0        1
     171.488      686.464      1.0        1
     213.876      687.333      1.0        1
     256.210      688.201      1.0        1
     298.491      689.068      1.0        1
     340.719      689.934      1.0        1
      22.894      690.799      1.0        1
      65.014      691.664      1.0        1
     107.081      692.527      1.0        1
     149.094      693.389      1.0        1
     191.053      694.250      1.0        1
     232.958      695.111      1.0        1
     274.809      695.970      1.0        1
     316.605      696.828      1.0        1
     358.347      697.685      1.0        1
      40.034      698.542      1.0        1
      81.666      699.397      1.0        1
     123.243      700.251      1.0        1
     164.765      701.104      1.0        1
     206.232      701.957      1.0        1
     247.643      702.808      1.0        1
     288.999      703.658      1.0        1
     330.299      704.507      1.0        1
      11.544      705.355      1.0        1
      52.732      706.202      1.0        1
      93.865      707.048      1.0        1
     134.941      707.893      1.0        1
     175.962      708.737      1.0        1
     216.925      709.580      1.0        1
     257.832      710.421      1.0        1
     298.683      711.262      1.0        1
     339.476      712.102      1.0        1
      20.213      712.940      1.0        1
      60.892      713.778      1.0        1
     101.515      714.614      1.0        1
     142.079      715.449      1.0        1
     182.587      716.284      1.0        1
     223.036      717.117      1.0        1
     263.428      717.949      1.0        1
     303.762      718.780      1.0        1
     344.038      719.609      1.0        1
      24.256      720.438      1.0        1
      64.415      721.266      1.0        1
     104.516      722.092      1.0        1
     144.559      722.918      1.0        1
     184.542      723.742      1.0        1
     224.467      724.565      1.0        1
     264.333      725.387      1.0        1
     304.140      726.208      1.0        1
     343.887      727.028      1.0        1
      23.575      727.847      1.0        1
      63.204      728.664      1.0        1
     102.773      729.480      1.0        1
     142.282      730.296      1.0        1
     181.731      731.110      1.0        1
     221.120      731.923      1.0        1
     260.449      732.734      1.0        1
     299.718      733.545      1.0        1
     338.926      734.354      1.0        1
      18.074      735.162      1.0        1
      57.161      735.970      1.0        1
      96.187      736.775      1.0        1
     135.152      737.580      1.0        1
     174.056      738.384      1.0        1
     212.899      739.186      1.0        1
     251.680      739.987      1.0        1
     290.400      740.787      1.0        1
     329.058      741.586      1.0        1
       7.654      742.383      1.0        1
      46.188      743.180      1.0        1
      84.661      743.975      1.0        1
     123.071      744.769      1.0        1
     161.419      745.562      1.0        1
     199.704      746.353      1.0        1
     237.927      747.143      1.0        1
     276.087      747.932      1.0        1
     314.185      748.720      1.0        1
     352.219      749.507      1.0        1
      30.190      750.292      1.0        1
      68.098      751.076      1.0        1
     105.943      751.859      1.0        1
     143.724      752.641      1.0        1
     181.441      753.421      1.0        1
     219.095      754.200      1.0        1
     256.684      754.978      1.0        1
     294.210      755.755      1.0        1
     331.672      756.530      1.0        1
       9.069      757.304      1.0        1
      46.402      758.077      1.0        1
      83.670      758.849      1.0        1
     120.874      759.619      1.0        1
     158.013      760.388      1.0        1
     195.086      761.156      1.0        1
     232.095      761.922      1.0        1
     269.039      762.687      1.0        1
     305.917      763.451      1.0        1
     342.729      764.214      1.0        1
      19.477      764.975      1.0        1
      56.158      765.735      1.0        1
      92.773      766.493      1.0        1
     129.323      767.251      1.0        1
     165.806      768.007      1.0        1
     202.223      768.761      1.0        1
     238.574      769.515      1.0        1
     274.858      770.267      1.0        1
     311.076      771.017      1.0        1
     347.226      771.767      1.0        1
      23.310      772.515      1.0        1
      59.327      773.262      1.0        1
      95.277      774.007      1.0        1
     131.159      774.751      1.0        1
     166.974      775.494      1.0        1
     202.721      776.235      1.0        1
     238.401      776.975      1.0        1
     274.013      777.714      1.0        1
     309.557      778.451      1.0        1
     345.033      779.187      1.0        1
      20.440      779.921      1.0        1
      55.780      780.655      1.0        1
      91.050      781.386      1.0        1
     126.253      782.117      1.0        1
     161.386      782.846      1.0        1
     196.451      783.573      1.0        1
     231.447      784.300      1.0        1
     266.373      785.025      1.0        1
     301.231      785.748      1.0        1
     336.019      786.470      1.0        1
      10.737      787.191      1.0        1
      45.386      787.910      1.0        1
      79.966      788.628      1.0        1
     114.475      789.345      1.0        1
     148.914      790.060      1.0        1
     183.284      790.773      1.0        1
     217.583      791.486      1.0        1
     251.811      792.196      1.0        1
     285.970      792.906      1.0        1
     320.057      793.614      1.0        1
     354.074      794.320      1.0        1
      28.020      795.025      1.0        1
      61.895      795.729      1.0        1
      95.699      796.431      1.0        1
     129.431      797.132      1.0        1
     163.093      797.832      1.0        1
     196.682      798.530      1.0        1
     230.200      799.226      1.0        1
     263.647      799.921      1.0        1
     297.021      800.615      1.0        1
     330.324      801.307      1.0        1
       3.554      801.997      1.0        1
      36.712      802.686      1.0        1
      69.798      803.374      1.0        1
     102.811      804.060      1.0        1
     135.752      804.745      1.0        1
     168.619      805.428      1.0        1
     201.414      806.110      1.0        1
     234.136      806.790      1.0        1
     266.785      807.469      1.0        1
     299.361      808.147      1.0        1
     331.863      808.822      1.0        1
       4.292      809.497      1.0        1
      36.647      810.170      1.0        1
      68.929      810.841      1.0        1
     101.137      811.511      1.0        1
     133.270      812.179      1.0        1
     165.330      812.846      1.0        1
     197.315      813.511      1.0        1
     229.226      814.175      1.0        1
     261.063      814.837      1.0        1
     292.825      815.498      1.0        1
     324.512      816.157      1.0        1
     356.125      816.815      1.0        1
      27.662      817.471      1.0        1
      59.125      818.126      1.0        1
      90.512      818.779      1.0        1
     121.824      819.430      1.0        1
     153.061      820.080      1.0        1
     184.222      820.729      1.0        1
     215.307      821.376      1.0        1
     246.317      822.021      1.0        1
     277.251      822.665      1.0        1
     308.109      823.307      1.0        1
     338.890      823.948      1.0        1
       9.596      824.587      1.0        1
      40.225      825.224      1.0        1
      70.777      825.860      1.0        1
     101.253      826.495      1.0        1
     131.652      827.128      1.0        1
     161.975      827.759      1.0        1
     192.220      828.389      1.0        1
     222.388      829.017      1.0        1
     252.479      829.643      1.0        1
     282.493      830.268      1.0        1
     312.430      830.892      1.0        1
     342.289      831.513      1.0        1
      12.070      832.134      1.0        1
      41.773      832.752      1.0        1
      71.399      833.369      1.0        1
     100.946      833.984      1.0        1
     130.416      834.598      1.0        1
     159.807      835.210      1.0        1
     189.120      835.821      1.0        1
     218.354      836.430      1.0        1
     247.510      837.037      1.0        1
     276.587      837.643      1.0        1
     305.585      838.247      1.0        1
     334.505      838.849      1.0        1
       3.345      839.450      1.0        1
      32.106      840.049      1.0        1
      60.788      840.647      1.0        1
      89.391      841.243      1.0        1
     117.914      841.837      1.0        1
     146.358      842.430      1.0        1
     174.721      843.021      1.0        1
     203.005      843.610      1.0        1
     231.210      844.198      1.0        1
     259.334      844.784      1.0        1
     287.377      845.368      1.0        1
     315.341      845.951      1.0        1
     343.224      846.532      1.0        1
      11.027      847.111      1.0        1
      38.749      847.689      1.0        1
      66.391      848.265      1.0        1
      93.952      848.839      1.0        1
     121.431      849.412      1.0        1
     148.830      849.983      1.0        1
     176.148      850.553      1.0        1
     203.384      851.120      1.0        1
     230.539      851.686      1.0        1
     257.612      852.251      1.0        1
     284.604      852.813      1.0        1
     311.515      853.374      1.0        1
     338.343      853.934      1.0        1
       5.090      854.491      1.0        1
      31.754      855.047      1.0        1
      58.337      855.601      1.0        1
      84.837      856.154      1.0        1
     111.255      856.704      1.0        1
     137.590      857.254      1.0        1
     163.843      857.801      1.0        1
     190.014      858.347      1.0        1
     216.101      858.891      1.0        1
     242.106      859.433      1.0        1
     268.028      859.973      1.0        1
     293.867      860.512      1.0        1
     319.622      861.049      1.0        1
     345.295      861.584      1.0        1
      10.884      862.118      1.0        1
      36.389      862.650      1.0        1
      61.811      863.180      1.0        1
      87.149      863.708      1.0        1
     112.404      864.235      1.0        1
     137.574      864.760      1.0        1
     162.661      865.283      1.0        1
     187.663      865.805      1.0        1
     212.582      866.324      1.0        1
     237.416      866.842      1.0        1
     262.165      867.359      1.0        1
     286.831      867.873      1.0        1
     311.411      868.386      1.0        1
     335.907      868.897      1.0        1
       0.318      869.406      1.0        1
      24.644      869.913      1.0        1
      48.886      870.419      1.0        1
      73.042      870.923      1.0        1
      97.113      871.425      1.0        1
     121.099      871.925      1.0        1
     144.999      872.424      1.0        1
     168.814      872.921      1.0        1
     192.543      873.416      1.0        1
     216.187      873.909      1.0        1
     239.744      874.400      1.0        1
     263.216      874.890      1.0        1
     286.602      875.378      1.0        1
     309.902      875.864      1.0        1
     333.116      876.348      1.0        1
     356.244      876.831      1.0        1
      19.285      877.312      1.0        1
      42.240      877.791      1.0        1
      65.108      878.268      1.0        1
      87.890      878.743      1.0        1
     110.585      879.217      1.0        1
     133.193      879.688      1.0        1
     155.714      880.158      1.0        1
     178.148      880.626      1.0        1
     200.495      881.093      1.0        1
     222.755      881.557      1.0        1
     244.928      882.020      1.0        1
     267.013      882.481      1.0        1
     289.011      882.940      1.0        1
     310.922      883.397      1.0        1
     332.744      883.852      1.0        1
     354.479      884.306      1.0        1
      16.126      884.758      1.0        1
      37.686      885.208      1.0        1
      59.157      885.656      1.0        1
      80.540      886.102      1.0        1
     101.835      886.546      1.0        1
     123.042      886.989      1.0        1
     144.160      887.430      1.0        1
     165.190      887.868      1.0        1
     186.132      888.306      1.0        1
     206.984      888.741      1.0        1
     227.748      889.174      1.0        1
     248.424      889.606      1.0        1
     269.010      890.035      1.0        1
     289.508      890.463      1.0        1
     309.916      890.889      1.0        1
     330.236      891.313      1.0        1
     350.466      891.735      1.0        1
      10.606      892.156      1.0        1
      30.658      892.574      1.0        1
      50.620      892.991      1.0        1
      70.492      893.406      1.0        1
      90.275      893.819      1.0        1
     109.968      894.230      1.0        1
     129.571      894.639      1.0        1
     149.085      895.046      1.0        1
     168.508      895.452      1.0        1
     187.842      895.855      1.0        1
     207.085      896.257      1.0        1
     226.238      896.657      1.0        1
     245.301      897.055      1.0        1
     264.273      897.451      1.0        1
     283.155      897.845      1.0        1
     301.947      898.237      1.0        1
     320.648      898.627      1.0        1
     339.258      899.016      1.0        1
     357.777      899.402      1.0        1
      16.206      899.787      1.0        1
      34.544      900.170      1.0        1
      52.790      900.551      1.0        1
      70.946      900.930      1.0        1
      89.010      901.307      1.0        1
     106.984      901.682      1.0        1
     124.866      902.055      1.0        1
     142.656      902.427      1.0        1
     160.355      902.796      1.0        1
     177.963      903.164      1.0        1
     195.479      903.530      1.0        1
     212.903      903.893      1.0        1
     230.236      904.255      1.0        1
     247.477      904.615      1.0        1
     264.625      904.973      1.0        1
     281.682      905.329      1.0        1
     298.647      905.683      1.0        1
     315.520      906.036      1.0        1
     332.301      906.386      1.0        1
     348.989      906.734      1.0        1
       5.585      907.081      1.0        1
      22.089      907.425      1.0        1
      38.500      907.768      1.0        1
      54.818      908.109      1.0        1
      71.044      908.448      1.0        1
      87.178      908.784      1.0        1
     103.218      909.119      1.0        1
     119.166      909.452      1.0        1
     135.021      909.783      1.0        1
     150.783      910.112      1.0        1
     166.452      910.439      1.0        1
     182.028      910.765      1.0        1
     197.511      911.088      1.0        1
     212.900      911.409      1.0        1
     228.197      911.729      1.0        1
     243.400      912.046      1.0        1
     258.509      912.361      1.0        1
     273.525      912.675      1.0        1
     288.448      912.987      1.0        1
     303.277      913.296      1.0        1
     318.012      913.604      1.0        1
     332.653      913.910      1.0        1
     347.201      914.213      1.0        1
       1.655      914.515      1.0        1
      16.015      914.815      1.0        1
      30.281      915.113      1.0        1
      44.453      915.409      1.0        1
      58.531      915.703      1.0        1
      72.515      915.995      1.0        1
      86.404      916.285      1.0        1
     100.199      916.573      1.0        1
     113.900      916.859      1.0        1
     127.507      917.143      1.0        1
     141.019      917.425      1.0        1
     154.437      917.705      1.0        1
     167.759      917.983      1.0        1
     180.988      918.260      1.0        1
     194.122      918.534      1.0        1
     207.160      918.806      1.0        1
     220.105      919.076      1.0        1
     232.954      919.345      1.0        1
     245.708      919.611      1.0        1
     258.368      919.875      1.0        1
     270.932      920.138      1.0        1
     283.402      920.398      1.0        1
     295.776      920.656      1.0        1
     308.055      920.913      1.0        1
     320.239      921.167      1.0        1
     332.327      921.420      1.0        1
     344.320      921.670      1.0        1
     356.218      921.918      1.0        1
       8.021      922.165      1.0        1
      19.728      922.409      1.0        1
      31.339      922.652      1.0        1
      42.855      922.892      1.0        1
      54.275      923.131      1.0        1
      65.599      923.367      1.0        1
      76.828      923.602      1.0        1
      87.961      923.834      1.0        1
      98.998      924.065      1.0        1
     109.939      924.293      1.0        1
     120.784      924.520      1.0        1
     131.534      924.744      1.0        1
     142.187      924.966      1.0        1
     152.744      925.187      1.0        1
     163.205      925.405      1.0        1
     173.570      925.622      1.0        1
     183.839      925.836      1.0        1
     194.012      926.049      1.0        1
     204.088      926.259      1.0        1
     214.068      926.467      1.0        1
     223.951      926.674      1.0        1
     233.738      926.878      1.0        1
     243.429      927.080      1.0        1
     253.023      927.281      1.0        1
     262.520      927.479      1.0        1
     271.921      927.675      1.0        1
     281.226      927.870      1.0        1
     290.433      928.062      1.0        1
     299.544      928.252      1.0        1
     308.559      928.440      1.0        1
     317.476      928.627      1.0        1
     326.296      928.811      1.0        1
     335.020      928.993      1.0        1
     343.647      929.173      1.0        1
     352.177      929.351      1.0        1
       0.610      929.527      1.0        1
       8.946      929.701      1.0        1
      17.184      929.874      1.0        1
      25.326      930.044      1.0        1
      33.371      930.212      1.0        1
      41.318      930.377      1.0        1
      49.168      930.541      1.0        1
      56.921      930.703      1.0        1
      64.577      930.863      1.0        1
      72.136      931.021      1.0        1
      79.597      931.177      1.0        1
      86.960      931.331      1.0        1
      94.227      931.482      1.0        1
     101.396      931.632      1.0        1
     108.467      931.780      1.0        1
     115.441      931.925      1.0        1
     122.318      932.069      1.0        1
     129.097      932.210      1.0        1
     135.778      932.350      1.0        1
     142.362      932.487      1.0        1
     148.848      932.623      1.0        1
     155.236      932.756      1.0        1
     161.527      932.888      1.0        1
     167.720      933.017      1.0        1
     173.815      933.144      1.0        1
     179.813      933.269      1.0        1
     185.713      933.393      1.0        1
     191.515      933.514      1.0        1
     197.219      933.633      1.0        1
     202.825      933.750      1.0        1
     208.333      933.865      1.0        1
     213.743      933.978      1.0        1
     219.056      934.089      1.0        1
     224.270      934.198      1.0        1
     229.387      934.305      1.0        1
     234.405      934.409      1.0        1
     239.326      934.512      1.0        1
     244.148      934.613      1.0        1
     248.872      934.712      1.0        1
     253.498      934.808      1.0        1
     258.026      934.903      1.0        1
     262.456      934.995      1.0        1
     266.788      935.086      1.0        1
     271.022      935.174      1.0        1
     275.157      935.260      1.0        1
     279.194      935.345      1.0        1
     283.133      935.427      1.0        1
     286.974      935.507      1.0        1
     290.716      935.585      1.0        1
     294.360      935.661      1.0        1
     297.906      935.735      1.0        1
     301.353      935.807      1.0        1
     304.703      935.877      1.0        1
     307.953      935.945      1.0        1
     311.106      936.011      1.0        1
     314.160      936.075      1.0        1
     317.116      936.137      1.0        1
     319.973      936.196      1.0        1
     322.732      936.254      1.0        1
     325.392      936.309      1.0        1
     327.954      936.363      1.0        1
     330.418      936.414      1.0        1
     332.783      936.464      1.0        1
     335.050      936.511      1.0        1
     337.218      936.556      1.0        1
     339.287      936.600      1.0        1
     341.259      936.641      1.0        1
     343.131      936.680      1.0        1
     344.905      936.717      1.0        1
     346.581      936.752      1.0        1
     348.158      936.785      1.0        1
     349.637      936.816      1.0        1
     351.017      936.845      1.0        1
     352.298      936.871      1.0        1
     353.481      936.896      1.0        1
     354.566      936.919      1.0        1
     355.551      936.939      1.0        1
     356.439      936.958      1.0        1
     357.227      936.974      1.0        1
     357.917      936.989      1.0        1
     358.509      937.001      1.0        1
     359.002      937.011      1.0        1
     359.396      937.020      1.0        1
     359.692      937.026      1.0        1
     359.889      937.030      1.0        1
     359.988      937.032      2.0        1
     359.889      937.030      1.0        1
     359.692      937.026      1.0        1
     359.396      937.020      1.0        1
     359.002      937.011      1.0        1
     358.509      937.001      1.0        1
     357.917      936.989      1.0        1
     357.227      936.974      1.0        1
     356.439      936.958      1.0        1
     355.551      936.939      1.0        1
     354.566      936.919      1.0        1
     353.481      936.896      1.0        1
     352.298      936.871      1.0        1
     351.017      936.845      1.0        1
     349.637      936.816      1.0        1
     348.158      936.785      1.0        1
     346.581      936.752      1.0        1
     344.905      936.717      1.0        1
     343.131      936.680      1.0        1
     341.259      936.641      1.0        1
     339.287      936.600      1.0        1
     337.218      936.556      1.0        1
     335.050      936.511      1.0        1
     332.783      936.464      1.0        1
     330.418      936.414      1.0        1
     327.954      936.363      1.0        1
     325.392      936.309      1.0        1
     322.732      936.254      1.0        1
     319.973      936.196      1.0        1
     317.116      936.137      1.0        1
     314.160      936.075      1.0        1
     311.106      936.011      1.0        1
     307.953      935.945      1.0        1
     304.703      935.877      1.0        1
     301.353      935.807      1.0        1
     297.906      935.735      1.0        1
     294.360      935.661      1.0        1
     290.716      935.585      1.0        1
     286.974      935.507      1.0        1
     283.133      935.427      1.0        1
     279.194      935.345      1.0        1
     275.157      935.260      1.0        1
     271.022      935.174      1.0        1
     266.788      935.086      1.0        1
     262.456      934.995      1.0        1
     258.026      934.903      1.0        1
     253.498      934.808      1.0        1
     248.872      934.712      1.0        1
     244.148      934.613      1.0        1
     239.326      934.512      1.0        1
     234.405      934.409      1.0        1
     229.387      934.305      1.0        1
     224.270      934.198      1.0        1
     219.056      934.089      1.0        1
     213.743      933.978      1.0        1
     208.333      933.865      1.0        1
     202.825      933.750      1.0        1
     197.219      933.633      1.0        1
     191.515      933.514      1.0        1
     185.713      933.393      1.0        1
     179.813      933.269      1.0        1
     173.815      933.144      1.0        1
     167.720      933.017      1.0        1
     161.527      932.888      1.0        1
     155.236      932.756      1.0        1
     148.848      932.623      1.0        1
     142.362      932.487      1.0        1
     135.778      932.350      1.0        1
     129.097      932.210      1.0        1
     122.318      932.069      1.0        1
     115.441      931.925      1.0        1
     108.467      931.780      1.0        1
     101.396      931.632      1.0        1
      94.227      931.482      1.0        1
      86.960      931.331      1.0        1
      79.597      931.177      1.0        1
      72.136      931.021      1.0        1
      64.577      930.863      1.0        1
      56.921      930.703      1.0        1
      49.168      930.541      1.0        1
      41.318      930.377      1.0        1
      33.371      930.212      1.0        1
      25.326      930.044      1.0        1
      17.184      929.874      1.0        1
       8.946      929.701      1.0        1
       0.610      929.527      1.0        1
     352.177      929.351      1.0        1
     343.647      929.173      1.0        1
     335.020      928.993      1.0        1
     326.296      928.811      1.0        1
     317.476      928.627      1.0        1
     308.559      928.440      1.0        1
     299.544      928.252      1.0        1
     290.433      928.062      1.0        1
     281.226      927.870      1.0        1
     271.921      927.675      1.0        1
     262.520      927.479      1.0        1
     253.023      927.281      1.0        1
     243.429      927.080      1.0        1
     233.738      926.878      1.0        1
     223.951      926.674      1.0        1
     214.068      926.467      1.0        1
     204.088      926.259      1.0        1
     194.012      926.049      1.0        1
     183.839      925.836      1.0        1
     173.570      925.622      1.0        1
     163.205      925.405      1.0        1
     152.744      925.187      1.0        1
     142.187      924.966      1.0        1
     131.534      924.744      1.0        1
     120.784      924.520      1.0        1
     109.939      924.293      1.0        1
      98.998      924.065      1.0        1
      87.961      923.834      1.0        1
      76.828      923.602      1.0        1
      65.599      923.367      1.0        1
      54.275      923.131      1.0        1
      42.855      922.892      1.0        1
      31.339      922.652      1.0        1
      19.728      922.409      1.0        1
       8.021      922.165      1.0        1
     356.218      921.918      1.0        1
     344.320      921.670      1.0        1
     332.327      921.420      1.0        1
     320.239      921.167      1.0        1
     308.055      920.913      1.0        1
     295.776      920.656      1.0        1
     283.402      920.398      1.0        1
     270.932      920.138      1.0        1
     258.368      919.875      1.0        1
     245.708      919.611      1.0        1
     232.954      919.345      1.0        1
     220.105      919.076      1.0        1
     207.160      918.806      1.0        1
     194.122      918.534      1.0        1
     180.988      918.260      1.0        1
     167.759      917.983      1.0        1
     154.437      917.705      1.0        1
     141.019      917.425      1.0        1
     127.507      917.143      1.0        1
     113.900      916.859      1.0        1
     100.199      916.573      1.0        1
      86.404      916.285      1.0        1
      72.515      915.995      1.0        1
      58.531      915.703      1.0        1
      44.453      915.409      1.0        1
      30.281      915.113      1.0        1
      16.015      914.815      1.0        1
       1.655      914.515      1.0        1
     347.201      914.213      1.0        1
     332.653      913.910      1.0        1
     318.012      913.604      1.0        1
     303.277      913.296      1.0        1
     288.448      912.987      1.0        1
     273.525      912.675      1.0        1
     258.509      912.361      1.0        1
     243.400      912.046      1.0        1
     228.197      911.729      1.0        1
     212.900      911.409      1.0        1
     197.511      911.088      1.0        1
     182.028      910.765      1.0        1
     166.452      910.439      1.0        1
     150.783      910.112      1.0        1
     135.021      909.783      1.0        1
     119.166      909.452      1.0        1
     103.218      909.119      1.0        1
      87.178      908.784      1.0        1
      71.044      908.448      1.0        1
      54.818      908.109      1.0        1
      38.500      907.768      1.0        1
      22.089      907.425      1.0        1
       5.585      907.081      1.0        1
     348.989      906.734      1.0        1
     332.301      906.386      1.0        1
     315.520      906.036      1.0        1
     298.647      905.683      1.0        1
     281.682      905.329      1.0        1
     264.625      904.973      1.0        1
     247.477      904.615      1.0        1
     230.236      904.255      1.0        1
     212.903      903.893      1.0        1
     195.479      903.530      1.0        1
     177.963      903.164      1.0        1
     160.355      902.796      1.0        1
     142.656      902.427      1.0        1
     124.866      902.055      1.0        1
     106.984      901.682      1.0        1
      89.010      901.307      1.0        1
      70.946      900.930      1.0        1
      52.790      900.551      1.0        1
      34.544      900.170      1.0        1
      16.206      899.787      1.0        1
     357.777      899.402      1.0        1
     339.258      899.016      1.0        1
     320.648      898.627      1.0        1
     301.947      898.237      1.0        1
     283.155      897.845      1.0        1
     264.273      897.451      1.0        1
     245.301      897.055      1.0        1
     226.238      896.657      1.0        1
     207.085      896.257      1.0        1
     187.842      895.855      1.0        1
     168.508      895.452      1.0        1
     149.085      895.046      1.0        1
     129.571      894.639      1.0        1
     109.968      894.230      1.0        1
      90.275      893.819      1.0        1
      70.492      893.406      1.0        1
      50.620      892.991      1.0        1
      30.658      892.574      1.0        1
      10.606      892.156      1.0        1
     350.466      891.735      1.0        1
     330.236      891.313      1.0        1
     309.916      890.889      1.0        1
     289.508      890.463      1.0        1
     269.010      890.035      1.0        1
     248.424      889.606      1.0        1
     227.748      889.174      1.0        1
     206.984      888.741      1.0        1
     186.132      888.306      1.0        1
     165.190      887.868      1.0        1
     144.160      887.430      1.0        1
     123.042      886.989      1.0        1
     101.835      886.546      1.0        1
      80.540      886.102      1.0        1
      59.157      885.656      1.0        1
      37.686      885.208      1.0        1
      16.126      884.758      1.0        1
     354.479      884.306      1.0        1
     332.744      883.852      1.0        1
     310.922      883.397      1.0        1
     289.011      882.940      1.0        1
     267.013      882.481      1.0        1
     244.928      882.020      1.0        1
     222.755      881.557      1.0        1
     200.495      881.093      1.0        1
     178.148      880.626      1.0        1
     155.714      880.158      1.0        1
     133.193      879.688      1.0        1
     110.585      879.217      1.0        1
      87.890      878.743      1.0        1
      65.108      878.268      1.0        1
      42.240      877.791      1.0        1
      19.285      877.312      1.0        1
     356.244      876.831      1.0        1
     333.116      876.348      1.0        1
     309.902      875.864      1.0        1
     286.602      875.378      1.0        1
     263.216      874.890      1.0        1
     239.744      874.400      1.0        1
     216.187      873.909      1.0        1
     192.543      873.416      1.0        1
     168.814      872.921      1.0        1
     144.999      872.424      1.0        1
     121.099      871.925      1.0        1
      97.113      871.425      1.0        1
      73.042      870.923      1.0        1
      48.886      870.419      1.0        1
      24.644      869.913      1.0        1
       0.318      869.406      1.0        1
     335.907      868.897      1.0        1
     311.411      868.386      1.0        1
     286.831      867.873      1.0        1
     262.165      867.359      1.0        1
     237.416      866.842      1.0        1
     212.582      866.324      1.0        1
     187.663      865.805      1.0        1
     162.661      865.283      1.0        1
     137.574      864.760      1.0        1
     112.404      864.235      1.0        1
      87.149      863.708      1.0        1
      61.811      863.180      1.0        1
      36.389      862.650      1.0        1
      10.884      862.118      1.0        1
     345.295      861.584      1.0        1
     319.622      861.049      1.0        1
     293.867      860.512      1.0        1
     268.028      859.973      1.0        1
     242.106      859.433      1.0        1
     216.101      858.891      1.0        1
     190.014      858.347      1.0        1
     163.843      857.801      1.0        1
     137.590      857.254      1.0        1
     111.255      856.704      1.0        1
      84.837      856.154      1.0        1
      58.337      855.601      1.0        1
      31.754      855.047      1.0        1
       5.090      854.491      1.0        1
     338.343      853.934      1.0        1
     311.515      853.374      1.0        1
     284.604      852.813      1.0        1
     257.612      852.251      1.0        1
     230.539      851.686      1.0        1
     203.384      851.120      1.0        1
     176.148      850.553      1.0        1
     148.830      849.983      1.0        1
     121.431      849.412      1.0        1
      93.952      848.839      1.0        1
      66.391      848.265      1.0        1
      38.749      847.689      1.0        1
      11.027      847.111      1.0        1
     343.224      846.532      1.0        1
     315.341      845.951      1.0        1
     287.377      845.368      1.0        1
     259.334      844.784      1.0        1
     231.210      844.198      1.0        1
     203.005      843.610      1.0        1
     174.721      843.021      1.0        1
     146.358      842.430      1.0        1
     117.914      841.837      1.0        1
      89.391      841.243      1.0        1
      60.788      840.647      1.0        1
      32.106      840.049      1.0        1
       3.345      839.450      1.0        1
     334.505      838.849      1.0        1
     305.585      838.247      1.0        1
     276.587      837.643      1.0        1
     247.510      837.037      1.0        1
     218.354      836.430      1.0        1
     189.120      835.821      1.0        1
     159.807      835.210      1.0        1
     130.416      834.598      1.0        1
     100.946      833.984      1.0        1
      71.399      833.369      1.0        1
      41.773      832.752      1.0        1
      12.070      832.134      1.0        1
     342.289      831.513      1.0        1
     312.430      830.892      1.0        1
     282.493      830.268      1.0        1
     252.479      829.643      1.0        1
     222.388      829.017      1.0        1
     192.220      828.389      1.0        1
     161.975      827.759      1.0        1
     131.652      827.128      1.0        1
     101.253      826.495      1.0        1
      70.777      825.860      1.0        1
      40.225      825.224      1.0        1
       9.596      824.587      1.0        1
     338.890      823.948      1.0        1
     308.109      823.307      1.0        1
     277.251      822.665      1.0        1
     246.317      822.021      1.0        1
     215.307      821.376      1.0        1
     184.222      820.729      1.0        1
     153.061      820.080      1.0        1
     121.824      819.430      1.0        1
      90.512      818.779      1.0        1
      59.125      818.126      1.0        1
      27.662      817.471      1.0        1
     356.125      816.815      1.0        1
     324.512      816.157      1.0        1
     292.825      815.498      1.0        1
     261.063      814.837      1.0        1
     229.226      814.175      1.0        1
     197.315      813.511      1.0        1
     165.330      812.846      1.0        1
     133.270      812.179      1.0        1
     101.137      811.511      1.0        1
      68.929      810.841      1.0        1
      36.647      810.170      1.0        1
       4.292      809.497      1.0        1
     331.863      808.822      1.0        1
     299.361      808.147      1.0        1
     266.785      807.469      1.0        1
     234.136      806.790      1.0        1
     201.414      806.110      1.0        1
     168.619      805.428      1.0        1
     135.752      804.745      1.0        1
     102.811      804.060      1.0        1
      69.798      803.374      1.0        1
      36.712      802.686      1.0        1
       3.554      801.997      1.0        1
     330.324      801.307      1.0        1
     297.021      800.615      1.0        1
     263.647      799.921      1.0        1
     230.200      799.226      1.0        1
     196.682      798.530      1.0        1
     163.093      797.832      1.0        1
     129.431      797.132      1.0        1
      95.699      796.431      1.0        1
      61.895      795.729      1.0        1
      28.020      795.025      1.0        1
     354.074      794.320      1.0        1
     320.057      793.614      1.0        1
     285.970      792.906      1.0        1
     251.811      792.196      1.0        1
     217.583      791.486      1.0        1
     183.284      790.773      1.0        1
     148.914      790.060      1.0        1
     114.475      789.345      1.0        1
      79.966      788.628      1.0        1
      45.386      787.910      1.0        1
      10.737      787.191      1.0        1
     336.019      786.470      1.0        1
     301.231      785.748      1.0        1
     266.373      785.025      1.0        1
     231.447      784.300      1.0        1
     196.451      783.573      1.0        1
     161.386      782.846      1.0        1
     126.253      782.117      1.0        1
      91.050      781.386      1.0        1
      55.780      780.655      1.0        1
      20.440      779.921      1.0        1
     345.033      779.187      1.0        1
     309.557      778.451      1.0        1
     274.013      777.714      1.0        1
     238.401      776.975      1.0        1
     202.721      776.235      1.0        1
     166.974      775.494      1.0        1
     131.159      774.751      1.0        1
      95.277      774.007      1.0        1
      59.327      773.262      1.0        1
      23.310      772.515      1.0        1
     347.226      771.767      1.0        1
     311.076      771.017      1.0        1
     274.858      770.267      1.0        1
     238.574      769.515      1.0        1
     202.223      768.761      1.0        1
     165.806      768.007      1.0        1
     129.323      767.251      1.0        1
      92.773      766.493      1.0        1
      56.158      765.735      1.0        1
      19.477      764.975      1.0        1
     342.729      764.214      1.0        1
     305.917      763.451      1.0        1
     269.039      762.687      1.0        1
     232.095      761.922      1.0        1
     195.086      761.156      1.0        1
     158.013      760.388      1.0        1
     120.874      759.619      1.0        1
      83.670      758.849      1.0        1
      46.402      758.077      1.0        1
       9.069      757.304      1.0        1
     331.672      756.530      1.0        1
     294.210      755.755      1.0        1
     256.684      754.978      1.0        1
     219.095      754.200      1.0        1
     181.441      753.421      1.0        1
     143.724      752.641      1.0        1
     105.943      751.859      1.0        1
      68.098      751.076      1.0        1
      30.190      750.292      1.0        1
     352.219      749.507      1.0        1
     314.185      748.720      1.0        1
     276.087      747.932      1.0        1
     237.927      747.143      1.0        1
     199.704      746.353      1.0        1
     161.419      745.562      1.0        1
     123.071      744.769      1.0        1
      84.661      743.975      1.0        1
      46.188      743.180      1.0        1
       7.654      742.383      1.0        1
     329.058      741.586      1.0        1
     290.400      740.787      1.0        1
     251.680      739.987      1.0        1
     212.899      739.186      1.0        1
     174.056      738.384      1.0        1
     135.152      737.580      1.0        1
      96.187      736.775      1.0        1
      57.161      735.970      1.0        1
      18.074      735.162      1.0        1
     338.926      734.354      1.0        1
     299.718      733.545      1.0        1
     260.449      732.734      1.0        1
     221.120      731.923      1.0        1
     181.731      731.110      1.0        1
     142.282      730.296      1.0        1
     102.773      729.480      1.0        1
      63.204      728.664      1.0        1
      23.575      727.847      1.0        1
     343.887      727.028      1.0        1
     304.140      726.208      1.0        1
     264.333      725.387      1.0        1
     224.467      724.565      1.0        1
     184.542      723.742      1.0        1
     144.559      722.918      1.0        1
     104.516      722.092      1.0        1
      64.415      721.266      1.0        1
      24.256      720.438      1.0        1
     344.038      719.609      1.0        1
     303.762      718.780      1.0        1
     263.428      717.949      1.0        1
     223.036      717.117      1.0        1
     182.587      716.284      1.0        1
     142.079      715.449      1.0        1
     101.515      714.614      1.0        1
      60.892      713.778      1.0        1
      20.213      712.940      1.0        1
     339.476      712.102      1.0        1
     298.683      711.262      1.0        1
     257.832      710.421      1.0        1
     216.925      709.580      1.0        1
     175.962      708.737      1.0        1
     134.941      707.893      1.0        1
      93.865      707.048      1.0        1
      52.732      706.202      1.0        1
      11.544      705.355      1.0        1
     330.299      704.507      1.0        1
     288.999      703.658      1.0        1
     247.643      702.808      1.0        1
     206.232      701.957      1.0        1
     164.765      701.104      1.0        1
     123.243      700.251      1.0        1
      81.666      699.397      1.0        1
      40.034      698.542      1.0        1
     358.347      697.685      1.0        1
     316.605      696.828      1.0        1
     274.809      695.970      1.0        1
     232.958      695.111      1.0        1
     191.053      694.250      1.0        1
     149.094      693.389      1.0        1
     107.081      692.527      1.0        1
      65.014      691.664      1.0        1
      22.894      690.799      1.0        1
     340.719      689.934      1.0        1
     298.491      689.068      1.0        1
     256.210      688.201      1.0        1
     213.876      687.333      1.0        1
     171.488      686.464      1.0        1
     129.048      685.594      1.0        1
      86.555      684.723      1.0        1
      44.009      683.851      1.0        1
       1.410      682.978      1.0        1
     318.759      682.104      1.0        1
     276.056      681.229      1.0        1
     233.301      680.354      1.0        1
     190.493      679.477      1.0        1
     147.634      678.600      1.0        1
     104.723      677.721      1.0        1
      61.760      676.842      1.0        1
      18.746      675.961      1.0        1
     335.681      675.080      1.0        1
     292.564      674.198      1.0        1
     249.396      673.315      1.0        1
     206.178      672.431      1.0        1
     162.908      671.546      1.0        1
     119.588      670.660      1.0        1
      76.217      669.774      1.0        1
      32.796      668.886      1.0        1
     349.325      667.998      1.0        1
     305.803      667.109      1.0        1
     262.232      666.218      1.0        1
     218.610      665.327      1.0        1
     174.939      664.436      1.0        1
     131.218      663.543      1.0        1
      87.448      662.649      1.0        1
      43.628      661.755      1.0        1
     359.759      660.859      1.0        1
     315.841      659.963      1.0        1
     271.875      659.066      1.0        1
     227.859      658.168      1.0        1
     183.794      657.270      1.0        1
     139.682      656.370      1.0        1
      95.520      655.470      1.0        1
      51.311      654.569      1.0        1
       7.053      653.667      1.0        1
     322.747      652.764      1.0        1
     278.393      651.861      1.0        1
     233.992      650.956      1.0        1
     189.543      650.051      1.0        1
     145.046      649.145      1.0        1
     100.502      648.238      1.0        1
      55.911      647.331      1.0        1
      11.273      646.422      1.0        1
     326.587      645.513      1.0        1
     281.855      644.603      1.0        1
     237.077      643.692      1.0        1
     192.251      642.781      1.0        1
     147.380      641.869      1.0        1
     102.462      640.956      1.0        1
      57.497      640.042      1.0        1
      12.487      639.127      1.0        1
     327.431      638.212      1.0        1
     282.329      637.296      1.0        1
     237.181      636.379      1.0        1
     191.988      635.462      1.0        1
     146.750      634.543      1.0        1
     101.466      633.624      1.0        1
      56.137      632.705      1.0        1
      10.763      631.784      1.0        1
     325.344      630.863      1.0        1
     279.881      629.941      1.0        1
     234.373      629.019      1.0        1
     188.820      628.096      1.0        1
     143.223      627.172      1.0        1
      97.582      626.247      1.0        1
      51.897      625.322      1.0        1
       6.167      624.395      1.0        1
     320.394      623.469      1.0        1
     274.578      622.541      1.0        1
     228.718      621.613      1.0        1
     182.814      620.684      1.0        1
     136.867      619.755      1.0        1
      90.877      618.825      1.0        1
      44.844      617.894      1.0        1
     358.767      616.963      1.0        1
     312.648      616.030      1.0        1
     266.487      615.098      1.0        1
     220.283      614.164      1.0        1
     174.036      613.230      1.0        1
     127.748      612.296      1.0        1
      81.417      611.360      1.0        1
      35.044      610.424      1.0        1
     348.629      609.488      1.0        1
     302.172      608.551      1.0        1
     255.674      607.613      1.0        1
     209.134      606.675      1.0        1
     162.553      605.736      1.0        1
     115.931      604.796      1.0        1
      69.268      603.856      1.0        1
      22.563      602.915      1.0        1
     335.818      601.973      1.0        1
     289.032      601.031      1.0        1
     242.205      600.089      1.0        1
     195.338      599.146      1.0        1
     148.431      598.202      1.0        1
     101.483      597.258      1.0        1
      54.495      596.313      1.0        1
       7.467      595.367      1.0        1
     320.400      594.421      1.0        1
     273.292      593.475      1.0        1
     226.145      592.528      1.0        1
     178.959      591.580      1.0        1
     131.733      590.632      1.0        1
      84.468      589.683      1.0        1
      37.164      588.734      1.0        1
     349.821      587.784      1.0        1
     302.439      586.834      1.0        1
     255.018      585.883      1.0        1
     207.559      584.932      1.0        1
     160.062      583.980      1.0        1
     112.526      583.027      1.0        1
      64.951      582.074      1.0        1
      17.339      581.121      1.0        1
     329.689      580.167      1.0        1
     282.001      579.213      1.0        1
     234.275      578.258      1.0        1
     186.511      577.303      1.0        1
     138.710      576.347      1.0        1
      90.872      575.391      1.0        1
      42.997      574.434      1.0        1
     355.084      573.477      1.0        1
     307.134      572.519      1.0        1
     259.148      571.561      1.0        1
     211.125      570.602      1.0        1
     163.065      569.643      1.0        1
     114.969      568.683      1.0        1
      66.836      567.724      1.0        1
      18.667      566.763      1.0        1
     330.462      565.802      1.0        1
     282.221      564.841      1.0        1
     233.945      563.879      1.0        1
     185.632      562.917      1.0        1
     137.284      561.955      1.0        1
      88.900      560.992      1.0        1
      40.481      560.029      1.0        1
     352.027      559.065      1.0        1
     303.537      558.101      1.0        1
     255.013      557.136      1.0        1
     206.453      556.171      1.0        1
     157.859      555.206      1.0        1
     109.230      554.240      1.0        1
      60.567      553.274      1.0        1
      11.869      552.308      1.0        1
     323.137      551.341      1.0        1
     274.370      550.374      1.0        1
     225.570      549.406      1.0        1
     176.735      548.438      1.0        1
     127.867      547.470      1.0        1
      78.965      546.501      1.0        1
      30.030      545.532      1.0        1
     341.061      544.563      1.0        1
     292.059      543.593      1.0        1
     243.023      542.624      1.0        1
     193.955      541.653      1.0        1
     144.853      540.683      1.0        1
      95.718      539.712      1.0        1
      46.551      538.740      1.0        1
     357.351      537.769      1.0        1
     308.119      536.797      1.0        1
     258.854      535.825      1.0        1
     209.557      534.852      1.0        1
     160.228      533.880      1.0        1
     110.866      532.907      1.0        1
      61.473      531.933      1.0        1
      12.048      530.960      1.0        1
     322.591      529.986      1.0        1
     273.103      529.012      1.0        1
     223.583      528.037      1.0        1
     174.032      527.063      1.0        1
     124.449      526.088      1.0        1
      74.836      525.112      1.0        1
      25.191      524.137      1.0        1
     335.515      523.161      1.0        1
     285.809      522.185      1.0        1
     236.072      521.209      1.0        1
     186.305      520.233      1.0        1
     136.507      519.256      1.0        1
      86.678      518.279      1.0        1
      36.820      517.302      1.0        1
     346.931      516.325      1.0        1
     297.013      515.347      1.0        1
     247.064      514.370      1.0        1
     197.086      513.392      1.0        1
     147.078      512.414      1.0        1
      97.041      511.435      1.0        1
      46.974      510.457      1.0        1
     356.878      509.478      1.0        1
     306.752      508.499      1.0        1
     256.598      507.520      1.0        1
     206.415      506.541      1.0        1
     156.202      505.562      1.0        1
     105.961      504.582      1.0        1
      55.692      503.602      1.0        1
       5.394      502.622      1.0        1
     315.067      501.642      1.0        1
     264.712      500.662      1.0        1
     214.329      499.682      1.0        1
     163.918      498.701      1.0        1
     113.479      497.721      1.0        1
      63.012      496.740      1.0        1
      12.517      495.759      1.0        1
     321.994      494.778      1.0        1
     271.444      493.797      1.0        1
     220.867      492.816      1.0        1
     170.262      491.835      1.0        1
     119.630      490.853      1.0        1
      68.971      489.872      1.0        1
      18.285      488.890      1.0        1
     327.572      487.908      1.0        1
     276.833      486.927      1.0        1
     226.066      485.945      1.0        1
     175.273      484.963      1.0        1
     124.454      483.981      1.0        1
      73.608      482.999      1.0        1
      22.736      482.017      1.0        1
     331.838      481.034      1.0        1
     280.914      480.052      1.0        1
     229.964      479.070      1.0        1
     178.988      478.087      1.0        1
     127.986      477.105      1.0        1
      76.959      476.122      1.0        1
      25.906      475.140      1.0        1
     334.828      474.157      1.0        1
     283.724      473.175      1.0        1
     232.596      472.192      1.0        1
     181.442      471.210      1.0        1
     130.263      470.227      1.0        1
      79.060      469.244      1.0        1
      27.831      468.262      1.0        1
     336.578      467.279      1.0        1
     285.300      466.296      1.0        1
     233.998      465.314      1.0        1
     182.672      464.331      1.0        1
     131.321      463.349      1.0        1
      79.946      462.366      1.0        1
      28.547      461.384      1.0        1
     337.124      460.401      1.0        1
     285.678      459.419      1.0        1
     234.207      458.436      1.0        1
     182.713      457.454      1.0        1
     131.195      456.471      1.0        1
      79.654      455.489      1.0        1
      28.090      454.507      1.0        1
     336.502      453.525      1.0        1
     284.891      452.542      1.0        1
     233.257      451.560      1.0        1
     181.600      450.578      1.0        1
     129.920      449.596      1.0        1
      78.218      448.615      1.0        1
      26.493      447.633      1.0        1
     334.745      446.651      1.0        1
     282.975      445.670      1.0        1
     231.182      444.688      1.0        1
     179.368      443.707      1.0        1
     127.531      442.726      1.0        1
      75.672      441.744      1.0        1
      23.791      440.763      1.0        1
     331.888      439.782      1.0        1
     279.963      438.802      1.0        1
     228.017      437.821      1.0        1
     176.049      436.840      1.0        1
     124.060      435.860      1.0        1
      72.049      434.880      1.0        1
      20.017      433.900      1.0        1
     327.964      432.920      1.0        1
     275.890      431.940      1.0        1
     223.795      430.960      1.0        1
     171.679      429.981      1.0        1
     119.542      429.002      1.0        1
      67.384      428.022      1.0        1
      15.206      427.043      1.0        1
     323.007      426.065      1.0        1
     270.788      425.086      1.0        1
     218.548      424.108      1.0        1
     166.288      423.129      1.0        1
     114.008      422.151      1.0        1
      61.708      421.174      1.0        1
       9.388      420.196      1.0        1
     317.048      419.219      1.0        1
     264.688      418.241      1.0        1
     212.309      417.264      1.0        1
     159.910      416.288      1.0        1
     107.491      415.311      1.0        1
      55.053      414.335      1.0        1
       2.596      413.359      1.0        1
     310.120      412.383      1.0        1
     257.624      411.407      1.0        1
     205.109      410.432      1.0        1
     152.575      409.457      1.0        1
     100.023      408.482      1.0        1
      47.452      407.508      1.0        1
     354.862      406.533      1.0        1
     302.253      405.559      1.0        1
     249.626      404.586      1.0        1
     196.980      403.612      1.0        1
     144.316      402.639      1.0        1
      91.634      401.666      1.0        1
      38.934      400.693      1.0        1
     346.215      399.721      1.0        1
     293.479      398.749      1.0        1
     240.724      397.777      1.0        1
     187.952      396.806      1.0        1
     135.162      395.835      1.0        1
      82.355      394.864      1.0        1
      29.530      393.894      1.0        1
     336.687      392.924      1.0        1
     283.827      391.954      1.0        1
     230.950      390.984      1.0        1
     178.056      390.015      1.0        1
     125.144      389.046      1.0        1
      72.215      388.078      1.0        1
      19.270      387.110      1.0        1
     326.307      386.142      1.0        1
     273.328      385.175      1.0        1
     220.332      384.208      1.0        1
     167.319      383.241      1.0        1
     114.290      382.275      1.0        1
      61.245      381.309      1.0        1
       8.183      380.344      1.0        1
     315.104      379.378      1.0        1
     262.010      378.414      1.0        1
     208.899      377.449      1.0        1
     155.773      376.485      1.0        1
     102.630      375.522      1.0        1
      49.471      374.559      1.0        1
     356.297      373.596      1.0        1
     303.107      372.634      1.0        1
     249.901      371.672      1.0        1
     196.680      370.710      1.0        1
     143.443      369.749      1.0        1
      90.191      368.789      1.0        1
      36.924      367.829      1.0        1
     343.641      366.869      1.0        1
     290.343      365.910      1.0        1
     237.030      364.951      1.0        1
     183.702      363.992      1.0        1
     130.359      363.034      1.0        1
      77.002      362.077      1.0        1
      23.629      361.120      1.0        1
     330.242      360.163      1.0        1
     276.840      359.207      1.0        1
     223.424      358.252      1.0        1
     169.993      357.297      1.0        1
     116.548      356.342      1.0        1
      63.089      355.388      1.0        1
       9.615      354.434      1.0        1
     316.127      353.481      1.0        1
     262.625      352.529      1.0        1
     209.109      351.576      1.0        1
     155.579      350.625      1.0        1
     102.035      349.674      1.0        1
      48.478      348.723      1.0        1
     354.907      347.773      1.0        1
     301.322      346.824      1.0        1
     247.723      345.875      1.0        1
     194.112      344.926      1.0        1
     140.486      343.978      1.0        1
      86.848      343.031      1.0        1
      33.196      342.084      1.0        1
     339.531      341.138      1.0        1
     285.852      340.192      1.0        1
     232.161      339.247      1.0        1
     178.457      338.302      1.0        1
     124.740      337.358      1.0        1
      71.010      336.415      1.0        1
      17.267      335.472      1.0        1
     323.512      334.530      1.0        1
     269.744      333.588      1.0        1
     215.963      332.647      1.0        1
     162.170      331.706      1.0        1
     108.365      330.766      1.0        1
      54.547      329.827      1.0        1
       0.717      328.888      1.0        1
     306.875      327.950      1.0        1
     253.021      327.013      1.0        1
     199.154      326.076      1.0        1
     145.276      325.140      1.0        1
      91.386      324.204      1.0        1
      37.484      323.269      1.0        1
     343.570      322.335      1.0        1
     289.644      321.401      1.0        1
     235.707      320.468      1.0        1
     181.758      319.536      1.0        1
     127.798      318.604      1.0        1
      73.826      317.673      1.0        1
      19.843      316.742      1.0        1
     325.848      315.812      1.0        1
     271.842      314.883      1.0        1
     217.825      313.955      1.0        1
     163.797      313.027      1.0        1
     109.758      312.100      1.0        1
      55.708      311.174      1.0        1
       1.647      310.248      1.0        1
     307.575      309.323      1.0        1
     253.493      308.399      1.0        1
     199.399      307.475      1.0        1
     145.295      306.552      1.0        1
      91.181      305.630      1.0        1
      37.056      304.708      1.0        1
     342.920      303.787      1.0        1
     288.774      302.867      1.0        1
     234.618      301.948      1.0        1
     180.451      301.029      1.0        1
     126.274      300.112      1.0        1
      72.087      299.194      1.0        1
      17.890      298.278      1.0        1
     323.683      297.362      1.0        1
     269.466      296.447      1.0        1
     215.239      295.533      1.0        1
     161.002      294.620      1.0        1
     106.755      293.707      1.0        1
      52.499      292.795      1.0        1
     358.232      291.884      1.0        1
     303.957      290.974      1.0        1
     249.671      290.064      1.0        1
     195.377      289.156      1.0        1
     141.072      288.248      1.0        1
      86.759      287.341      1.0        1
      32.436      286.434      1.0        1
     338.104      285.529      1.0        1
     283.763      284.624      1.0        1
     229.412      283.720      1.0        1
     175.053      282.817      1.0        1
     120.684      281.914      1.0        1
      66.306      281.013      1.0        1
      11.920      280.112      1.0        1
     317.525      279.212      1.0        1
     263.120      278.313      1.0        1
     208.708      277.415      1.0        1
     154.286      276.517      1.0        1
      99.856      275.621      1.0        1
      45.417      274.725      1.0        1
     350.970      273.830      1.0        1
     296.514      272.936      1.0        1
     242.050      272.043      1.0        1
     187.578      271.151      1.0        1
     133.097      270.259      1.0        1
      78.608      269.369      1.0        1
      24.111      268.479      1.0        1
     329.605      267.590      1.0        1
     275.092      266.702      1.0        1
     220.570      265.815      1.0        1
     166.041      264.929      1.0        1
     111.503      264.043      1.0        1
      56.958      263.159      1.0        1
       2.405      262.276      1.0        1
     307.844      261.393      1.0        1
     253.276      260.511      1.0        1
     198.700      259.631      1.0        1
     144.116      258.751      1.0        1
      89.524      257.872      1.0        1
      34.925      256.994      1.0        1
     340.319      256.117      1.0        1
     285.705      255.240      1.0        1
     231.084      254.365      1.0        1
     176.456      253.491      1.0        1
     121.820      252.618      1.0        1
      67.177      251.745      1.0        1
      12.527      250.874      1.0        1
     317.870      250.003      1.0        1
     263.206      249.134      1.0        1
     208.535      248.265      1.0        1
     153.857      247.397      1.0        1
      99.171      246.531      1.0        1
      44.480      245.665      1.0        1
     349.781      244.800      1.0        1
     295.075      243.937      1.0        1
     240.363      243.074      1.0        1
     185.644      242.212      1.0        1
     130.918      241.351      1.0        1
      76.186      240.492      1.0        1
      21.448      239.633      1.0        1
     326.703      238.775      1.0        1
     271.951      237.918      1.0        1
     217.193      237.063      1.0        1
     162.429      236.208      1.0        1
     107.658      235.354      1.0        1
      52.881      234.502      1.0        1
     358.098      233.650      1.0        1
     303.309      232.799      1.0        1
     248.513      231.950      1.0        1
     193.712      231.101      1.0        1
     138.904      230.254      1.0        1
      84.091      229.407      1.0        1
      29.271      228.562      1.0        1
     334.446      227.717      1.0        1
     279.614      226.874      1.0        1
     224.777      226.032      1.0        1
     169.935      225.190      1.0        1
     115.086      224.350      1.0        1
      60.232      223.511      1.0        1
       5.372      222.673      1.0        1
     310.506      221.836      1.0        1
     255.635      221.000      1.0        1
     200.759      220.166      1.0        1
     145.877      219.332      1.0        1
      90.989      218.499      1.0        1
      36.096      217.668      1.0        1
     341.198      216.837      1.0        1
     286.294      216.008      1.0        1
     231.385      215.180      1.0        1
     176.471      214.353      1.0        1
     121.552      213.527      1.0        1
      66.628      212.702      1.0        1
      11.698      211.878      1.0        1
     316.763      211.056      1.0        1
     261.824      210.234      1.0        1
     206.879      209.414      1.0        1
     151.929      208.595      1.0        1
      96.975      207.777      1.0        1
      42.015      206.960      1.0        1
     347.051      206.144      1.0        1
     292.082      205.329      1.0        1
     237.108      204.516      1.0        1
     182.129      203.704      1.0        1
     127.146      202.892      1.0        1
      72.158      202.082      1.0        1
      17.165      201.274      1.0        1
     322.168      200.466      1.0        1
     267.167      199.659      1.0        1
     212.160      198.854      1.0        1
     157.150      198.050      1.0        1
     102.135      197.247      1.0        1
      47.115      196.445      1.0        1
     352.091      195.645      1.0        1
     297.063      194.845      1.0        1
     242.030      194.047      1.0        1
     186.993      193.250      1.0        1
     131.952      192.455      1.0        1
      76.907      191.660      1.0        1
      21.858      190.867      1.0        1
     326.804      190.075      1.0        1
     271.747      189.284      1.0        1
     216.685      188.494      1.0        1
     161.619      187.706      1.0        1
     106.550      186.918      1.0        1
      51.476      186.132      1.0        1
     356.399      185.348      1.0        1
     301.317      184.564      1.0        1
     246.232      183.782      1.0        1
     191.143      183.001      1.0        1
     136.050      182.221      1.0        1
      80.953      181.443      1.0        1
      25.853      180.665      1.0        1
     330.749      179.889      1.0        1
     275.641      179.115      1.0        1
     220.529      178.341      1.0        1
     165.414      177.569      1.0        1
     110.296      176.798      1.0        1
      55.174      176.029      1.0        1
       0.048      175.260      1.0        1
     304.919      174.493      1.0        1
     249.786      173.727      1.0        1
     194.650      172.963      1.0        1
     139.511      172.200      1.0        1
      84.368      171.438      1.0        1
      29.222      170.677      1.0        1
     334.073      169.918      1.0        1
     278.920      169.160      1.0        1
     223.764      168.403      1.0        1
     168.605      167.648      1.0        1
     113.443      166.894      1.0        1
      58.277      166.141      1.0        1
       3.109      165.390      1.0        1
     307.937      164.640      1.0        1
     252.762      163.891      1.0        1
     197.584      163.144      1.0        1
     142.404      162.398      1.0        1
      87.220      161.653      1.0        1
      32.033      160.910      1.0        1
     336.843      160.168      1.0        1
     281.651      159.427      1.0        1
     226.455      158.688      1.0        1
     171.257      157.950      1.0        1
     116.056      157.213      1.0        1
      60.852      156.478      1.0        1
       5.645      155.744      1.0        1
     310.435      155.012      1.0        1
     255.223      154.280      1.0        1
     200.008      153.551      1.0        1
     144.790      152.822      1.0        1
      89.570      152.095      1.0        1
      34.347      151.370      1.0        1
     339.122      150.646      1.0        1
     283.894      149.923      1.0        1
     228.663      149.201      1.0        1
     173.430      148.481      1.0        1
     118.194      147.763      1.0        1
      62.956      147.046      1.0        1
       7.715      146.330      1.0        1
     312.472      145.615      1.0        1
     257.227      144.902      1.0        1
     201.979      144.191      1.0        1
     146.729      143.481      1.0        1
      91.476      142.772      1.0        1
      36.221      142.065      1.0        1
     340.964      141.359      1.0        1
     285.705      140.655      1.0        1
     230.443      139.952      1.0        1
     175.179      139.250      1.0        1
     119.913      138.550      1.0        1
      64.645      137.851      1.0        1
       9.374      137.154      1.0        1
     314.102      136.458      1.0        1
     258.827      135.764      1.0        1
     203.550      135.071      1.0        1
     148.271      134.380      1.0        1
      92.990      133.690      1.0        1
      37.707      133.002      1.0        1
     342.423      132.315      1.0        1
     287.136      131.629      1.0        1
     231.847      130.945      1.0        1
     176.556      130.263      1.0        1
     121.263      129.582      1.0        1
      65.968      128.902      1.0        1
      10.672      128.224      1.0        1
     315.373      127.547      1.0        1
     260.073      126.872      1.0        1
     204.771      126.199      1.0        1
     149.467      125.527      1.0        1
      94.161      124.856      1.0        1
      38.853      124.187      1.0        1
     343.544      123.519      1.0        1
     288.233      122.853      1.0        1
     232.920      122.189      1.0        1
     177.606      121.526      1.0        1
     122.290      120.864      1.0        1
      66.972      120.204      1.0        1
      11.652      119.546      1.0        1
     316.331      118.889      1.0        1
     261.009      118.234      1.0        1
     205.684      117.580      1.0        1
     150.358      116.927      1.0        1
      95.031      116.277      1.0        1
      39.702      115.627      1.0        1
     344.372      114.980      1.0        1
     289.040      114.334      1.0        1
     233.706      113.689      1.0        1
     178.371      113.046      1.0        1
     123.035      112.405      1.0        1
      67.697      111.765      1.0        1
      12.358      111.126      1.0        1
     317.017      110.490      1.0        1
     261.675      109.854      1.0        1
     206.331      109.221      1.0        1
     150.987      108.589      1.0        1
      95.640      107.958      1.0        1
      40.293      107.329      1.0        1
     344.944      106.702      1.0        1
     289.594      106.076      1.0        1
     234.243      105.452      1.0        1
     178.890      104.829      1.0        1
     123.536      104.208      1.0        1
      68.181      103.589      1.0        1
      12.824      102.971      1.0        1
     317.467      102.355      1.0        1
     262.108      101.741      1.0        1
     206.748      101.128      1.0        1
     151.387      100.516      1.0        1
      96.025       99.907      1.0        1
      40.661       99.299      1.0        1
     345.297       98.692      1.0        1
     289.931       98.087      1.0        1
     234.564       97.484      1.0        1
     179.196       96.882      1.0        1
     123.827       96.282      1.0        1
      68.457       95.684      1.0        1
      13.086       95.087      1.0        1
     317.714       94.492      1.0        1
     262.341       93.899      1.0        1
     206.967       93.307      1.0        1
     151.592       92.717      1.0        1
      96.216       92.128      1.0        1
      40.839       91.541      1.0        1
     345.461       90.956      1.0        1
     290.082       90.373      1.0        1
     234.702       89.791      1.0        1
     179.321       89.210      1.0        1
     123.939       88.632      1.0        1
      68.557       88.055      1.0        1
      13.173       87.480      1.0        1
     317.789       86.906      1.0        1
     262.403       86.334      1.0        1
     207.017       85.764      1.0        1
     151.630       85.195      1.0        1
      96.243       84.629      1.0        1
      40.854       84.063      1.0        1
     345.465       83.500      1.0        1
     290.074       82.938      1.0        1
     234.683       82.378      1.0        1
     179.291       81.820      1.0        1
     123.899       81.263      1.0        1
      68.506       80.708      1.0        1
      13.111       80.154      1.0        1
     317.717       79.603      1.0        1
     262.321       79.053      1.0        1
     206.925       78.505      1.0        1
     151.528       77.958      1.0        1
      96.130       77.413      1.0        1
      40.732       76.870      1.0        1
     345.333       76.329      1.0        1
     289.933       75.789      1.0        1
     234.533       75.251      1.0        1
     179.132       74.715      1.0        1
     123.730       74.181      1.0        1
      68.328       73.648      1.0        1
      12.925       73.117      1.0        1
     317.521       72.588      1.0        1
     262.117       72.060      1.0        1
     206.712       71.534      1.0        1
     151.307       71.010      1.0        1
      95.901       70.488      1.0        1
      40.495       69.967      1.0        1
     345.088       69.448      1.0        1
     289.680       68.931      1.0        1
     234.272       68.416      1.0        1
     178.863       67.902      1.0        1
     123.454       67.391      1.0        1
      68.044       66.881      1.0        1
      12.634       66.372      1.0        1
     317.223       65.866      1.0        1
     261.812       65.361      1.0        1
     206.400       64.858      1.0        1
     150.988       64.357      1.0        1
      95.575       63.857      1.0        1
      40.162       63.360      1.0        1
     344.748       62.864      1.0        1
     289.334       62.370      1.0        1
     233.920       61.877      1.0        1
     178.505       61.387      1.0        1
     123.089       60.898      1.0        1
      67.673       60.411      1.0        1
      12.257       59.926      1.0        1
     316.840       59.442      1.0        1
     261.423       58.961      1.0        1
     206.006       58.481      1.0        1
     150.588       58.003      1.0        1
      95.169       57.526      1.0        1
      39.751       57.052      1.0        1
     344.331       56.579      1.0        1
     288.912       56.109      1.0        1
     233.492       55.640      1.0        1
     178.072       55.172      1.0        1
     122.652       54.707      1.0        1
      67.231       54.243      1.0        1
      11.809       53.782      1.0        1
     316.388       53.322      1.0        1
     260.966       52.864      1.0        1
     205.544       52.407      1.0        1
     150.121       51.953      1.0        1
      94.698       51.500      1.0        1
      39.275       51.049      1.0        1
     343.852       50.600      1.0        1
     288.428       50.153      1.0        1
     233.004       49.708      1.0        1
     177.580       49.264      1.0        1
     122.155       48.823      1.0        1
      66.730       48.383      1.0        1
      11.305       47.945      1.0        1
     315.879       47.509      1.0        1
     260.454       47.074      1.0        1
     205.028       46.642      1.0        1
     149.602       46.211      1.0        1
      94.175       45.783      1.0        1
      38.748       45.356      1.0        1
     343.321       44.931      1.0        1
     287.894       44.508      1.0        1
     232.467       44.086      1.0        1
     177.039       43.667      1.0        1
     121.611       43.249      1.0        1
      66.183       42.834      1.0        1
      10.755       42.420      1.0        1
     315.326       42.008      1.0        1
     259.898       41.598      1.0        1
     204.469       41.189      1.0        1
     149.040       40.783      1.0        1
      93.610       40.379      1.0        1
      38.181       39.976      1.0        1
     342.751       39.575      1.0        1
     287.321       39.176      1.0        1
     231.891       38.779      1.0        1
     176.461       38.384      1.0        1
     121.030       37.991      1.0        1
      65.600       37.600      1.0        1
      10.169       37.210      1.0        1
     314.738       36.823      1.0        1
     259.307       36.437      1.0        1
     203.876       36.053      1.0        1
     148.444       35.672      1.0        1
      93.013       35.292      1.0        1
      37.581       34.914      1.0        1
     342.149       34.537      1.0        1
     286.717       34.163      1.0        1
     231.285       33.791      1.0        1
     175.853       33.420      1.0        1
     120.421       33.052      1.0        1
      64.988       32.685      1.0        1
       9.555       32.320      1.0        1
     314.123       31.958      1.0        1
     258.690       31.597      1.0        1
     203.257       31.238      1.0        1
     147.824       30.881      1.0        1
      92.390       30.526      1.0        1
      36.957       30.172      1.0        1
     341.524       29.821      1.0        1
     286.090       29.472      1.0        1
     230.656       29.124      1.0        1
     175.223       28.779      1.0        1
     119.789       28.435      1.0        1
      64.355       28.094      1.0        1
       8.921       27.754      1.0        1
     313.487       27.416      1.0        1
     258.052       27.080      1.0        1
     202.618       26.746      1.0        1
     147.184       26.414      1.0        1
      91.749       26.084      1.0        1
      36.314       25.756      1.0        1
     340.880       25.430      1.0        1
     285.445       25.106      1.0        1
     230.010       24.783      1.0        1
     174.575       24.463      1.0        1
     119.140       24.145      1.0        1
      63.705       23.828      1.0        1
       8.270       23.514      1.0        1
     312.835       23.201      1.0        1
     257.400       22.891      1.0        1
     201.965       22.582      1.0        1
     146.529       22.275      1.0        1
      91.094       21.970      1.0        1
      35.658       21.668      1.0        1
     340.223       21.367      1.0        1
     284.787       21.068      1.0        1
     229.351       20.771      1.0        1
     173.916       20.476      1.0        1
     118.480       20.183      1.0        1
      63.044       19.892      1.0        1
       7.608       19.603      1.0        1
     312.172       19.316      1.0        1
     256.736       19.031      1.0        1
     201.300       18.748      1.0        1
     145.864       18.467      1.0        1
      90.428       18.188      1.0        1
      34.992       17.910      1.0        1
     339.556       17.635      1.0        1
     284.120       17.362      1.0        1
     228.684       17.091      1.0        1
     173.247       16.821      1.0        1
     117.811       16.554      1.0        1
      62.375       16.289      1.0        1
       6.938       16.025      1.0        1
     311.502       15.764      1.0        1
     256.065       15.505      1.0        1
     200.629       15.247      1.0        1
     145.192       14.992      1.0        1
      89.756       14.739      1.0        1
      34.319       14.487      1.0        1
     338.883       14.238      1.0        1
     283.446       13.990      1.0        1
     228.010       13.745      1.0        1
     172.573       13.501      1.0        1
     117.136       13.260      1.0        1
      61.699       13.020      1.0        1
       6.263       12.783      1.0        1
     310.826       12.547      1.0        1
     255.389       12.314      1.0        1
     199.952       12.083      1.0        1
     144.516       11.853      1.0        1
      89.079       11.626      1.0        1
      33.642       11.400      1.0        1
     338.205       11.177      1.0        1
     282.768       10.955      1.0        1
     227.331       10.736      1.0        1
     171.894       10.518      1.0        1
     116.457       10.303      1.0        1
      61.020       10.090      1.0        1
       5.583        9.878      1.0        1
     310.147        9.669      1.0        1
     254.710        9.461      1.0        1
     199.273        9.256      1.0        1
     143.836        9.053      1.0        1
      88.399        8.851      1.0        1
      32.961        8.652      1.0        1
     337.524        8.455      1.0        1
     282.087        8.259      1.0        1
     226.650        8.066      1.0        1
     171.213        7.875      1.0        1
     115.776        7.686      1.0        1
      60.339        7.498      1.0        1
       4.902        7.313      1.0        1
     309.465        7.130      1.0        1
     254.028        6.949      1.0        1
     198.591        6.770      1.0        1
     143.154        6.593      1.0        1
      87.716        6.417      1.0        1
      32.279        6.244      1.0        1
     336.842        6.073      1.0        1
     281.405        5.904      1.0        1
     225.968        5.737      1.0        1
     170.531        5.572      1.0        1
     115.093        5.410      1.0        1
      59.656        5.249      1.0        1
       4.219        5.090      1.0        1
     308.782        4.933      1.0        1
     253.345        4.778      1.0        1
     197.908        4.625      1.0        1
     142.470        4.475      1.0        1
      87.033        4.326      1.0        1
      31.596        4.179      1.0        1
     336.159        4.035      1.0        1
     280.722        3.892      1.0        1
     225.284        3.752      1.0        1
     169.847        3.613      1.0        1
     114.410        3.477      1.0        1
      58.973        3.342      1.0        1
       3.536        3.210      1.0        1
     308.098        3.080      1.0        1
     252.661        2.951      1.0        1
     197.224        2.825      1.0        1
     141.787        2.701      1.0        1
      86.350        2.579      1.0        1
      30.912        2.458      1.0        1
     335.475        2.340      1.0        1
     280.038        2.224      1.0        1
     224.601        2.110      1.0        1
     169.163        1.998      1.0        1
     113.726        1.888      1.0        1
      58.289        1.781      1.0        1
       2.852        1.675      1.0        1
     307.414        1.571      1.0        1
     251.977        1.469      1.0        1
     196.540        1.370      1.0        1
     141.103        1.272      1.0        1
      85.666        1.176      1.0        1
      30.228        1.083      1.0        1
     334.791        0.991      1.0        1
     279.354        0.902      1.0        1
     223.917        0.815      1.0        1
     168.479        0.729      1.0        1
     113.042        0.646      1.0        1
      57.605        0.565      1.0        1
       2.168        0.486      1.0        1
     306.730        0.408      1.0        1
     251.293        0.333      1.0        1
     195.856        0.260      1.0        1
     140.419        0.189      1.0        1
      84.981        0.121      1.0        1
      29.544        0.054      1.0        1
     334.107        0.000      1.0        1
     278.670        0.000      1.0        1
     223.232        0.000      1.0        1
     167.795        0.000      1.0        1
     112.358        0.000      1.0        1
      56.921        0.000      1.0        1
       1.484        0.000      1.0        1
     306.046        0.000      1.0        1
     250.609        0.000      1.0        1
     195.172        0.000      1.0        0
     139.735        0.000      1.0        0
      84.297        0.000      1.0        0
      28.860        0.000      1.0        0
     333.423        0.000      1.0        0
     277.986        0.000      1.0        0
     222.548        0.000      1.0        0
     167.111        0.000      1.0        0
     111.674        0.000      1.0        0
      56.237        0.000      1.0        0
       0.799        0.000      1.0        0
     305.362        0.000      1.0        0
     249.925        0.000      1.0        0
     194.488        0.000      1.0        0
     139.050        0.000      1.0        0
      83.613        0.000      1.0        0
      28.176        0.000      1.0        0
     332.739        0.000      1.0        0
     277.302        0.000      1.0        0
     221.864        0.000      1.0        0
     166.427        0.000      1.0        0
     110.990        0.000      1.0        0
       0.000        0.000      1.0        0
