# Pbox   2001.00  43 4095  0.0     0    1.0000 5.93546     6
# VJ4.2  pw (us)  pwr  pwrf  dres  dmf  dcyc   B1max (kHz)  Stype
# ---------------------------------------------------------------
# Pxsim 0.0020010 5860.3000 0.000 242878.6 0.0000000 0.0000000 0.00
# data: pw (s) B1max (Hz) status sw (Hz) T1 (s)   T2 (s) RDC (Hz)
# ---------------------------------------------------------------
# Pbox.inp data :
# ~~~~~~~~~~~~~~~~~~~~~~~~~~~Waves~~~~~~~~~~~~~~~~~~~~~~~~~~~~~~~~~~
#   shape   bw(/pw)   ofs  st  ph  fla  trev  d1  d2   d0   wrp  php
# ~~~~~~~~~~~~~~~~~~~~~~~~~~~~~~~~~~~~~~~~~~~~~~~~~~~~~~~~~~~~~~~~~~
# { wurst2i 40500/0.002 }
#
# type      = r          mod       = n          dres      = n         
# steps     = n          stepsize  = n          attn      = i         
# refofs    = n          wrap      = n          sfrq      = n         
# sucyc     = d          reps      = 2          header    = y         
# bscor     = n          pad1      = n          pad2      = n         
# bsim      = n          T1        = n          T2        = n         
# rdc       = n          dcyc      = n          sw        = n         
#
# RF Calibration Data :  ref_pwr   = 55         ref_pw90  = 10.58
# ~~~~~~~~~~~~~~~~~~~~~
###
# ------------------- Shape data ------------------
# pwtot      = 0.0020010 (total pw, s)
# power      = 43 (power level, dB)
# pwrf       = 4095 (fine power)
# B1max      = 5.9355 (B1max, kHz)
# B1rms      = 3.5861 (B1[RMS], kHz)
# nptot      = 690 (total number of steps)
# stepsize   = 2.90 (length of a single step, us)
# maxamp     = 1011.0 (max amplitude)
# ------------------------------------------------- 
#      phase      amplitude   length     gate 
# ------------------------------------------------- 
        0.00      1023.00      0.0        0
       0.000        0.000      1.0        0
     166.477        0.000      1.0        0
     187.638        0.000      1.0        0
     208.799        0.000      1.0        0
     229.961        0.000      1.0        0
     251.122        0.000      1.0        1
     272.283        0.000      1.0        1
     293.444        0.030      1.0        1
     314.605        0.345      1.0        1
     335.766        0.702      1.0        1
     356.927        1.101      1.0        1
      18.088        1.541      1.0        1
      39.249        2.024      1.0        1
      60.411        2.548      1.0        1
      81.572        3.114      1.0        1
     102.733        3.722      1.0        1
     123.894        4.372      1.0        1
     145.055        5.063      1.0        1
     166.216        5.795      1.0        1
     187.377        6.569      1.0        1
     208.538        7.385      1.0        1
     229.699        8.241      1.0        1
     250.860        9.140      1.0        1
     272.021       10.079      1.0        1
     293.182       11.059      1.0        1
     314.343       12.081      1.0        1
     335.504       13.143      1.0        1
     356.665       14.246      1.0        1
      17.826       15.390      1.0        1
      38.987       16.575      1.0        1
      60.148       17.800      1.0        1
      81.308       19.066      1.0        1
     102.469       20.372      1.0        1
     123.630       21.718      1.0        1
     144.790       23.105      1.0        1
     165.950       24.531      1.0        1
     187.111       25.998      1.0        1
     208.271       27.504      1.0        1
     229.431       29.050      1.0        1
     250.591       30.636      1.0        1
     271.751       32.260      1.0        1
     292.910       33.925      1.0        1
     314.070       35.628      1.0        1
     335.229       37.370      1.0        1
     356.388       39.151      1.0        1
      17.547       40.971      1.0        1
      38.705       42.830      1.0        1
      59.863       44.726      1.0        1
      81.021       46.661      1.0        1
     102.178       48.634      1.0        1
     123.335       50.645      1.0        1
     144.492       52.694      1.0        1
     165.648       54.780      1.0        1
     186.803       56.904      1.0        1
     207.958       59.065      1.0        1
     229.113       61.263      1.0        1
     250.267       63.498      1.0        1
     271.420       65.769      1.0        1
     292.573       68.078      1.0        1
     313.724       70.422      1.0        1
     334.875       72.802      1.0        1
     356.025       75.219      1.0        1
      17.174       77.671      1.0        1
      38.322       80.158      1.0        1
      59.469       82.681      1.0        1
      80.615       85.239      1.0        1
     101.760       87.831      1.0        1
     122.904       90.459      1.0        1
     144.046       93.121      1.0        1
     165.186       95.817      1.0        1
     186.326       98.547      1.0        1
     207.463      101.311      1.0        1
     228.599      104.108      1.0        1
     249.733      106.938      1.0        1
     270.866      109.802      1.0        1
     291.996      112.699      1.0        1
     313.124      115.628      1.0        1
     334.250      118.589      1.0        1
     355.374      121.583      1.0        1
      16.496      124.608      1.0        1
      37.614      127.665      1.0        1
      58.731      130.753      1.0        1
      79.844      133.873      1.0        1
     100.955      137.023      1.0        1
     122.062      140.204      1.0        1
     143.166      143.415      1.0        1
     164.267      146.656      1.0        1
     185.365      149.927      1.0        1
     206.458      153.227      1.0        1
     227.548      156.557      1.0        1
     248.634      159.915      1.0        1
     269.716      163.302      1.0        1
     290.794      166.718      1.0        1
     311.867      170.162      1.0        1
     332.935      173.633      1.0        1
     353.998      177.132      1.0        1
      15.057      180.658      1.0        1
      36.110      184.211      1.0        1
      57.157      187.791      1.0        1
      78.199      191.397      1.0        1
      99.235      195.029      1.0        1
     120.265      198.687      1.0        1
     141.288      202.370      1.0        1
     162.305      206.079      1.0        1
     183.315      209.812      1.0        1
     204.317      213.570      1.0        1
     225.313      217.352      1.0        1
     246.301      221.157      1.0        1
     267.280      224.987      1.0        1
     288.252      228.839      1.0        1
     309.215      232.715      1.0        1
     330.169      236.613      1.0        1
     351.115      240.534      1.0        1
      12.051      244.476      1.0        1
      32.977      248.440      1.0        1
      53.894      252.425      1.0        1
      74.800      256.432      1.0        1
      95.695      260.459      1.0        1
     116.580      264.506      1.0        1
     137.453      268.573      1.0        1
     158.314      272.660      1.0        1
     179.164      276.766      1.0        1
     200.001      280.891      1.0        1
     220.826      285.034      1.0        1
     241.637      289.196      1.0        1
     262.435      293.376      1.0        1
     283.219      297.573      1.0        1
     303.988      301.788      1.0        1
     324.743      306.019      1.0        1
     345.483      310.267      1.0        1
       6.208      314.531      1.0        1
      26.916      318.811      1.0        1
      47.608      323.106      1.0        1
      68.283      327.417      1.0        1
      88.941      331.742      1.0        1
     109.581      336.081      1.0        1
     130.203      340.435      1.0        1
     150.807      344.802      1.0        1
     171.391      349.182      1.0        1
     191.955      353.576      1.0        1
     212.500      357.982      1.0        1
     233.023      362.400      1.0        1
     253.526      366.830      1.0        1
     274.006      371.271      1.0        1
     294.465      375.723      1.0        1
     314.901      380.186      1.0        1
     335.314      384.660      1.0        1
     355.702      389.143      1.0        1
      16.067      393.636      1.0        1
      36.406      398.139      1.0        1
      56.720      402.650      1.0        1
      77.008      407.169      1.0        1
      97.269      411.697      1.0        1
     117.502      416.232      1.0        1
     137.708      420.775      1.0        1
     157.886      425.325      1.0        1
     178.034      429.881      1.0        1
     198.152      434.444      1.0        1
     218.240      439.012      1.0        1
     238.298      443.586      1.0        1
     258.323      448.164      1.0        1
     278.316      452.748      1.0        1
     298.276      457.336      1.0        1
     318.203      461.928      1.0        1
     338.095      466.523      1.0        1
     357.952      471.121      1.0        1
      17.773      475.723      1.0        1
      37.558      480.326      1.0        1
      57.306      484.932      1.0        1
      77.016      489.539      1.0        1
      96.687      494.148      1.0        1
     116.319      498.757      1.0        1
     135.911      503.367      1.0        1
     155.462      507.977      1.0        1
     174.972      512.586      1.0        1
     194.440      517.195      1.0        1
     213.864      521.803      1.0        1
     233.245      526.410      1.0        1
     252.581      531.014      1.0        1
     271.872      535.617      1.0        1
     291.117      540.217      1.0        1
     310.314      544.814      1.0        1
     329.464      549.407      1.0        1
     348.566      553.997      1.0        1
       7.618      558.583      1.0        1
      26.619      563.164      1.0        1
      45.570      567.740      1.0        1
      64.469      572.312      1.0        1
      83.316      576.877      1.0        1
     102.109      581.436      1.0        1
     120.847      585.989      1.0        1
     139.530      590.536      1.0        1
     158.158      595.075      1.0        1
     176.728      599.606      1.0        1
     195.240      604.130      1.0        1
     213.694      608.645      1.0        1
     232.088      613.152      1.0        1
     250.422      617.650      1.0        1
     268.694      622.138      1.0        1
     286.905      626.617      1.0        1
     305.052      631.085      1.0        1
     323.135      635.543      1.0        1
     341.153      639.990      1.0        1
     359.105      644.425      1.0        1
      16.991      648.849      1.0        1
      34.809      653.261      1.0        1
      52.558      657.661      1.0        1
      70.238      662.048      1.0        1
      87.847      666.422      1.0        1
     105.385      670.782      1.0        1
     122.851      675.129      1.0        1
     140.243      679.461      1.0        1
     157.561      683.779      1.0        1
     174.804      688.082      1.0        1
     191.971      692.369      1.0        1
     209.061      696.641      1.0        1
     226.073      700.897      1.0        1
     243.006      705.137      1.0        1
     259.859      709.360      1.0        1
     276.631      713.566      1.0        1
     293.322      717.755      1.0        1
     309.929      721.926      1.0        1
     326.453      726.078      1.0        1
     342.892      730.213      1.0        1
     359.246      734.328      1.0        1
      15.512      738.425      1.0        1
      31.692      742.502      1.0        1
      47.782      746.559      1.0        1
      63.783      750.596      1.0        1
      79.694      754.613      1.0        1
      95.513      758.609      1.0        1
     111.239      762.583      1.0        1
     126.873      766.536      1.0        1
     142.411      770.468      1.0        1
     157.855      774.377      1.0        1
     173.202      778.264      1.0        1
     188.452      782.128      1.0        1
     203.603      785.969      1.0        1
     218.655      789.787      1.0        1
     233.607      793.581      1.0        1
     248.458      797.351      1.0        1
     263.207      801.096      1.0        1
     277.852      804.817      1.0        1
     292.394      808.513      1.0        1
     306.830      812.184      1.0        1
     321.161      815.829      1.0        1
     335.385      819.448      1.0        1
     349.501      823.041      1.0        1
       3.508      826.607      1.0        1
      17.405      830.147      1.0        1
      31.191      833.660      1.0        1
      44.866      837.145      1.0        1
      58.429      840.602      1.0        1
      71.877      844.032      1.0        1
      85.212      847.433      1.0        1
      98.431      850.806      1.0        1
     111.534      854.150      1.0        1
     124.519      857.465      1.0        1
     137.387      860.751      1.0        1
     150.135      864.007      1.0        1
     162.764      867.233      1.0        1
     175.272      870.429      1.0        1
     187.658      873.595      1.0        1
     199.921      876.729      1.0        1
     212.061      879.833      1.0        1
     224.077      882.906      1.0        1
     235.968      885.947      1.0        1
     247.732      888.957      1.0        1
     259.370      891.934      1.0        1
     270.880      894.879      1.0        1
     282.261      897.792      1.0        1
     293.513      900.672      1.0        1
     304.634      903.520      1.0        1
     315.625      906.334      1.0        1
     326.483      909.114      1.0        1
     337.209      911.861      1.0        1
     347.801      914.574      1.0        1
     358.259      917.253      1.0        1
       8.582      919.898      1.0        1
      18.768      922.508      1.0        1
      28.819      925.083      1.0        1
      38.731      927.624      1.0        1
      48.506      930.129      1.0        1
      58.142      932.598      1.0        1
      67.638      935.033      1.0        1
      76.993      937.431      1.0        1
      86.208      939.793      1.0        1
      95.280      942.120      1.0        1
     104.210      944.409      1.0        1
     112.997      946.663      1.0        1
     121.640      948.879      1.0        1
     130.139      951.059      1.0        1
     138.492      953.201      1.0        1
     146.699      955.306      1.0        1
     154.760      957.373      1.0        1
     162.673      959.403      1.0        1
     170.439      961.395      1.0        1
     178.056      963.350      1.0        1
     185.524      965.265      1.0        1
     192.843      967.143      1.0        1
     200.012      968.982      1.0        1
     207.029      970.783      1.0        1
     213.896      972.544      1.0        1
     220.610      974.267      1.0        1
     227.172      975.951      1.0        1
     233.581      977.595      1.0        1
     239.837      979.201      1.0        1
     245.939      980.766      1.0        1
     251.886      982.293      1.0        1
     257.678      983.779      1.0        1
     263.315      985.225      1.0        1
     268.796      986.632      1.0        1
     274.121      987.998      1.0        1
     279.289      989.325      1.0        1
     284.300      990.611      1.0        1
     289.153      991.856      1.0        1
     293.848      993.061      1.0        1
     298.385      994.225      1.0        1
     302.764      995.349      1.0        1
     306.983      996.432      1.0        1
     311.043      997.474      1.0        1
     314.943      998.475      1.0        1
     318.683      999.435      1.0        1
     322.262     1000.353      1.0        1
     325.681     1001.231      1.0        1
     328.939     1002.067      1.0        1
     332.036     1002.862      1.0        1
     334.971     1003.615      1.0        1
     337.745     1004.327      1.0        1
     340.356     1004.997      1.0        1
     342.805     1005.626      1.0        1
     345.092     1006.213      1.0        1
     347.217     1006.758      1.0        1
     349.179     1007.261      1.0        1
     350.977     1007.723      1.0        1
     352.613     1008.143      1.0        1
     354.086     1008.521      1.0        1
     355.395     1008.857      1.0        1
     356.541     1009.151      1.0        1
     357.523     1009.403      1.0        1
     358.342     1009.613      1.0        1
     358.997     1009.781      1.0        1
     359.488     1009.907      1.0        1
     359.816     1009.991      1.0        1
     359.980     1010.033      2.0        1
     359.816     1009.991      1.0        1
     359.488     1009.907      1.0        1
     358.997     1009.781      1.0        1
     358.342     1009.613      1.0        1
     357.523     1009.403      1.0        1
     356.541     1009.151      1.0        1
     355.395     1008.857      1.0        1
     354.086     1008.521      1.0        1
     352.613     1008.143      1.0        1
     350.977     1007.723      1.0        1
     349.179     1007.261      1.0        1
     347.217     1006.758      1.0        1
     345.092     1006.213      1.0        1
     342.805     1005.626      1.0        1
     340.356     1004.997      1.0        1
     337.745     1004.327      1.0        1
     334.971     1003.615      1.0        1
     332.036     1002.862      1.0        1
     328.939     1002.067      1.0        1
     325.681     1001.231      1.0        1
     322.262     1000.353      1.0        1
     318.683      999.435      1.0        1
     314.943      998.475      1.0        1
     311.043      997.474      1.0        1
     306.983      996.432      1.0        1
     302.764      995.349      1.0        1
     298.385      994.225      1.0        1
     293.848      993.061      1.0        1
     289.153      991.856      1.0        1
     284.300      990.611      1.0        1
     279.289      989.325      1.0        1
     274.121      987.998      1.0        1
     268.796      986.632      1.0        1
     263.315      985.225      1.0        1
     257.678      983.779      1.0        1
     251.886      982.293      1.0        1
     245.939      980.766      1.0        1
     239.837      979.201      1.0        1
     233.581      977.595      1.0        1
     227.172      975.951      1.0        1
     220.610      974.267      1.0        1
     213.896      972.544      1.0        1
     207.029      970.783      1.0        1
     200.012      968.982      1.0        1
     192.843      967.143      1.0        1
     185.524      965.265      1.0        1
     178.056      963.350      1.0        1
     170.439      961.395      1.0        1
     162.673      959.403      1.0        1
     154.760      957.373      1.0        1
     146.699      955.306      1.0        1
     138.492      953.201      1.0        1
     130.139      951.059      1.0        1
     121.640      948.879      1.0        1
     112.997      946.663      1.0        1
     104.210      944.409      1.0        1
      95.280      942.120      1.0        1
      86.208      939.793      1.0        1
      76.993      937.431      1.0        1
      67.638      935.033      1.0        1
      58.142      932.598      1.0        1
      48.506      930.129      1.0        1
      38.731      927.624      1.0        1
      28.819      925.083      1.0        1
      18.768      922.508      1.0        1
       8.582      919.898      1.0        1
     358.259      917.253      1.0        1
     347.801      914.574      1.0        1
     337.209      911.861      1.0        1
     326.483      909.114      1.0        1
     315.625      906.334      1.0        1
     304.634      903.520      1.0        1
     293.513      900.672      1.0        1
     282.261      897.792      1.0        1
     270.880      894.879      1.0        1
     259.370      891.934      1.0        1
     247.732      888.957      1.0        1
     235.968      885.947      1.0        1
     224.077      882.906      1.0        1
     212.061      879.833      1.0        1
     199.921      876.729      1.0        1
     187.658      873.595      1.0        1
     175.272      870.429      1.0        1
     162.764      867.233      1.0        1
     150.135      864.007      1.0        1
     137.387      860.751      1.0        1
     124.519      857.465      1.0        1
     111.534      854.150      1.0        1
      98.431      850.806      1.0        1
      85.212      847.433      1.0        1
      71.877      844.032      1.0        1
      58.429      840.602      1.0        1
      44.866      837.145      1.0        1
      31.191      833.660      1.0        1
      17.405      830.147      1.0        1
       3.508      826.607      1.0        1
     349.501      823.041      1.0        1
     335.385      819.448      1.0        1
     321.161      815.829      1.0        1
     306.830      812.184      1.0        1
     292.394      808.513      1.0        1
     277.852      804.817      1.0        1
     263.207      801.096      1.0        1
     248.458      797.351      1.0        1
     233.607      793.581      1.0        1
     218.655      789.787      1.0        1
     203.603      785.969      1.0        1
     188.452      782.128      1.0        1
     173.202      778.264      1.0        1
     157.855      774.377      1.0        1
     142.411      770.468      1.0        1
     126.873      766.536      1.0        1
     111.239      762.583      1.0        1
      95.513      758.609      1.0        1
      79.694      754.613      1.0        1
      63.783      750.596      1.0        1
      47.782      746.559      1.0        1
      31.692      742.502      1.0        1
      15.512      738.425      1.0        1
     359.246      734.328      1.0        1
     342.892      730.213      1.0        1
     326.453      726.078      1.0        1
     309.929      721.926      1.0        1
     293.322      717.755      1.0        1
     276.631      713.566      1.0        1
     259.859      709.360      1.0        1
     243.006      705.137      1.0        1
     226.073      700.897      1.0        1
     209.061      696.641      1.0        1
     191.971      692.369      1.0        1
     174.804      688.082      1.0        1
     157.561      683.779      1.0        1
     140.243      679.461      1.0        1
     122.851      675.129      1.0        1
     105.385      670.782      1.0        1
      87.847      666.422      1.0        1
      70.238      662.048      1.0        1
      52.558      657.661      1.0        1
      34.809      653.261      1.0        1
      16.991      648.849      1.0        1
     359.105      644.425      1.0        1
     341.153      639.990      1.0        1
     323.135      635.543      1.0        1
     305.052      631.085      1.0        1
     286.905      626.617      1.0        1
     268.694      622.138      1.0        1
     250.422      617.650      1.0        1
     232.088      613.152      1.0        1
     213.694      608.645      1.0        1
     195.240      604.130      1.0        1
     176.728      599.606      1.0        1
     158.158      595.075      1.0        1
     139.530      590.536      1.0        1
     120.847      585.989      1.0        1
     102.109      581.436      1.0        1
      83.316      576.877      1.0        1
      64.469      572.312      1.0        1
      45.570      567.740      1.0        1
      26.619      563.164      1.0        1
       7.618      558.583      1.0        1
     348.566      553.997      1.0        1
     329.464      549.407      1.0        1
     310.314      544.814      1.0        1
     291.117      540.217      1.0        1
     271.872      535.617      1.0        1
     252.581      531.014      1.0        1
     233.245      526.410      1.0        1
     213.864      521.803      1.0        1
     194.440      517.195      1.0        1
     174.972      512.586      1.0        1
     155.462      507.977      1.0        1
     135.911      503.367      1.0        1
     116.319      498.757      1.0        1
      96.687      494.148      1.0        1
      77.016      489.539      1.0        1
      57.306      484.932      1.0        1
      37.558      480.326      1.0        1
      17.773      475.723      1.0        1
     357.952      471.121      1.0        1
     338.095      466.523      1.0        1
     318.203      461.928      1.0        1
     298.276      457.336      1.0        1
     278.316      452.748      1.0        1
     258.323      448.164      1.0        1
     238.298      443.586      1.0        1
     218.240      439.012      1.0        1
     198.152      434.444      1.0        1
     178.034      429.881      1.0        1
     157.886      425.325      1.0        1
     137.708      420.775      1.0        1
     117.502      416.232      1.0        1
      97.269      411.697      1.0        1
      77.008      407.169      1.0        1
      56.720      402.650      1.0        1
      36.406      398.139      1.0        1
      16.067      393.636      1.0        1
     355.702      389.143      1.0        1
     335.314      384.660      1.0        1
     314.901      380.186      1.0        1
     294.465      375.723      1.0        1
     274.006      371.271      1.0        1
     253.526      366.830      1.0        1
     233.023      362.400      1.0        1
     212.500      357.982      1.0        1
     191.955      353.576      1.0        1
     171.391      349.182      1.0        1
     150.807      344.802      1.0        1
     130.203      340.435      1.0        1
     109.581      336.081      1.0        1
      88.941      331.742      1.0        1
      68.283      327.417      1.0        1
      47.608      323.106      1.0        1
      26.916      318.811      1.0        1
       6.208      314.531      1.0        1
     345.483      310.267      1.0        1
     324.743      306.019      1.0        1
     303.988      301.788      1.0        1
     283.219      297.573      1.0        1
     262.435      293.376      1.0        1
     241.637      289.196      1.0        1
     220.826      285.034      1.0        1
     200.001      280.891      1.0        1
     179.164      276.766      1.0        1
     158.314      272.660      1.0        1
     137.453      268.573      1.0        1
     116.580      264.506      1.0        1
      95.695      260.459      1.0        1
      74.800      256.432      1.0        1
      53.894      252.425      1.0        1
      32.977      248.440      1.0        1
      12.051      244.476      1.0        1
     351.115      240.534      1.0        1
     330.169      236.613      1.0        1
     309.215      232.715      1.0        1
     288.252      228.839      1.0        1
     267.280      224.987      1.0        1
     246.301      221.157      1.0        1
     225.313      217.352      1.0        1
     204.317      213.570      1.0        1
     183.315      209.812      1.0        1
     162.305      206.079      1.0        1
     141.288      202.370      1.0        1
     120.265      198.687      1.0        1
      99.235      195.029      1.0        1
      78.199      191.397      1.0        1
      57.157      187.791      1.0        1
      36.110      184.211      1.0        1
      15.057      180.658      1.0        1
     353.998      177.132      1.0        1
     332.935      173.633      1.0        1
     311.867      170.162      1.0        1
     290.794      166.718      1.0        1
     269.716      163.302      1.0        1
     248.634      159.915      1.0        1
     227.548      156.557      1.0        1
     206.458      153.227      1.0        1
     185.365      149.927      1.0        1
     164.267      146.656      1.0        1
     143.166      143.415      1.0        1
     122.062      140.204      1.0        1
     100.955      137.023      1.0        1
      79.844      133.873      1.0        1
      58.731      130.753      1.0        1
      37.614      127.665      1.0        1
      16.496      124.608      1.0        1
     355.374      121.583      1.0        1
     334.250      118.589      1.0        1
     313.124      115.628      1.0        1
     291.996      112.699      1.0        1
     270.866      109.802      1.0        1
     249.733      106.938      1.0        1
     228.599      104.108      1.0        1
     207.463      101.311      1.0        1
     186.326       98.547      1.0        1
     165.186       95.817      1.0        1
     144.046       93.121      1.0        1
     122.904       90.459      1.0        1
     101.760       87.831      1.0        1
      80.615       85.239      1.0        1
      59.469       82.681      1.0        1
      38.322       80.158      1.0        1
      17.174       77.671      1.0        1
     356.025       75.219      1.0        1
     334.875       72.802      1.0        1
     313.724       70.422      1.0        1
     292.573       68.078      1.0        1
     271.420       65.769      1.0        1
     250.267       63.498      1.0        1
     229.113       61.263      1.0        1
     207.958       59.065      1.0        1
     186.803       56.904      1.0        1
     165.648       54.780      1.0        1
     144.492       52.694      1.0        1
     123.335       50.645      1.0        1
     102.178       48.634      1.0        1
      81.021       46.661      1.0        1
      59.863       44.726      1.0        1
      38.705       42.830      1.0        1
      17.547       40.971      1.0        1
     356.388       39.151      1.0        1
     335.229       37.370      1.0        1
     314.070       35.628      1.0        1
     292.910       33.925      1.0        1
     271.751       32.260      1.0        1
     250.591       30.636      1.0        1
     229.431       29.050      1.0        1
     208.271       27.504      1.0        1
     187.111       25.998      1.0        1
     165.950       24.531      1.0        1
     144.790       23.105      1.0        1
     123.630       21.718      1.0        1
     102.469       20.372      1.0        1
      81.308       19.066      1.0        1
      60.148       17.800      1.0        1
      38.987       16.575      1.0        1
      17.826       15.390      1.0        1
     356.665       14.246      1.0        1
     335.504       13.143      1.0        1
     314.343       12.081      1.0        1
     293.182       11.059      1.0        1
     272.021       10.079      1.0        1
     250.860        9.140      1.0        1
     229.699        8.241      1.0        1
     208.538        7.385      1.0        1
     187.377        6.569      1.0        1
     166.216        5.795      1.0        1
     145.055        5.063      1.0        1
     123.894        4.372      1.0        1
     102.733        3.722      1.0        1
      81.572        3.114      1.0        1
      60.411        2.548      1.0        1
      39.249        2.024      1.0        1
      18.088        1.541      1.0        1
     356.927        1.101      1.0        1
     335.766        0.702      1.0        1
     314.605        0.345      1.0        1
     293.444        0.030      1.0        1
     272.283        0.000      1.0        1
     251.122        0.000      1.0        1
     229.961        0.000      1.0        0
     208.799        0.000      1.0        0
     187.638        0.000      1.0        0
     166.477        0.000      1.0        0
       0.000        0.000      1.0        0
