DU=/v, USER=nmr14t, NAME=partII_A, EXPNO=1, PROCNO=1
F1=9.000ppm, F2=0.000ppm, MI=0.50cm, MAXI=10000.00cm, PC=4.000
     #     ADDRESS            FREQUENCY         INTENSITY
                           [Hz]        [PPM]
     1     31431.7     3631.516       7.2598         1.35
     2     44116.8     2080.552       4.1593         1.66
     3     44180.7     2072.742       4.1437         3.02
     4     44249.3     2064.353       4.1269         1.91
     5     45349.6     1929.829       3.8580         1.81
     6     45401.1     1923.530       3.8454         2.40
     7     45416.8     1921.605       3.8415         1.82
     8     45471.4     1914.936       3.8282         1.74
     9     46361.9     1806.061       3.6105         0.92
    10     46417.1     1799.312       3.5970         1.61
    11     46447.9     1795.543       3.5895         1.23
    12     46475.5     1792.173       3.5828         1.17
    13     46501.0     1789.046       3.5765         1.55
    14     46557.6     1782.129       3.5627         0.80
    15     49805.0     1385.088       2.7690         0.73
    16     49884.9     1375.317       2.7494         1.51
    17     49946.1     1367.837       2.7345         1.22
    18     49963.0     1365.761       2.7303         0.98
    19     50024.8     1358.204       2.7152         1.92
    20     50105.0     1348.397       2.6956         1.04
    21     50954.6     1244.523       2.4880         0.97
    22     51001.4     1238.807       2.4765         1.39
    23     51059.0     1231.757       2.4624         1.15
    24     51094.3     1227.448       2.4538         0.80
    25     51141.9     1221.620       2.4422         1.15
    26     51197.9     1214.776       2.4285         0.84
    27     52263.2     1084.531       2.1681         3.48
    28     52315.4     1078.143       2.1553         3.17
    29     52342.7     1074.812       2.1487         3.54
    30     52391.0     1068.907       2.1369         2.24
    31     54261.9      840.159       1.6796         0.83
    32     54316.2      833.517       1.6663         1.20
    33     54348.8      829.532       1.6583         1.06
    34     54370.5      826.874       1.6530         1.07
    35     54401.1      823.141       1.6456         1.15
    36     54454.4      816.619       1.6325         0.82
    37     55137.4      733.117       1.4656        15.00
    38     56921.0      515.037       1.0296         8.84
    39     56976.3      508.281       1.0161         8.76
    40     57515.1      442.401       0.8844         8.84
    41     57569.9      435.705       0.8710         8.88
