# Pbox    400.20  52 4095  0.0     0    1.0000 16.72840     6
# VJ4.2  pw (us)  pwr  pwrf  dres  dmf  dcyc   B1max (kHz)  Stype
# ---------------------------------------------------------------
# Pxsim 0.0004002 16078.9174 0.000 365673.2 0.0000000 0.0000000 0.00
# data: pw (s) B1max (Hz) status sw (Hz) T1 (s)   T2 (s) RDC (Hz)
# ---------------------------------------------------------------
# Pbox.inp data :
# ~~~~~~~~~~~~~~~~~~~~~~~~~~~Waves~~~~~~~~~~~~~~~~~~~~~~~~~~~~~~~~~~
#   shape   bw(/pw)   ofs  st  ph  fla  trev  d1  d2   d0   wrp  php
# ~~~~~~~~~~~~~~~~~~~~~~~~~~~~~~~~~~~~~~~~~~~~~~~~~~~~~~~~~~~~~~~~~~
# { wurst2i -60976/0.0004 }
#
# type      = r          mod       = n          dres      = n         
# steps     = n          stepsize  = n          attn      = i         
# refofs    = n          wrap      = n          sfrq      = n         
# sucyc     = d          reps      = 2          header    = y         
# bscor     = n          pad1      = n          pad2      = n         
# bsim      = n          T1        = n          T2        = n         
# rdc       = n          dcyc      = n          sw        = n         
#
# RF Calibration Data :  ref_pwr   = 55         ref_pw90  = 10.58
# ~~~~~~~~~~~~~~~~~~~~~
###
# ------------------- Shape data ------------------
# pwtot      = 0.0004002 (total pw, s)
# power      = 52 (power level, dB)
# pwrf       = 4095 (fine power)
# B1max      = 16.7284 (B1max, kHz)
# B1rms      = 9.8323 (B1[RMS], kHz)
# nptot      = 348 (total number of steps)
# stepsize   = 1.15 (length of a single step, us)
# maxamp     = 984.2 (max amplitude)
# ------------------------------------------------- 
#      phase      amplitude   length     gate 
# ------------------------------------------------- 
        0.00      1023.00      0.0        0
       0.000        0.000      1.0        0
     238.019        0.000      1.0        0
     225.367        0.000      1.0        0
     212.715        0.000      1.0        1
     200.063        0.290      1.0        1
     187.411        1.016      1.0        1
     174.759        1.902      1.0        1
     162.107        2.948      1.0        1
     149.455        4.154      1.0        1
     136.803        5.520      1.0        1
     124.151        7.046      1.0        1
     111.499        8.730      1.0        1
      98.847       10.572      1.0        1
      86.195       12.572      1.0        1
      73.543       14.728      1.0        1
      60.891       17.041      1.0        1
      48.239       19.509      1.0        1
      35.587       22.132      1.0        1
      22.935       24.909      1.0        1
      10.284       27.838      1.0        1
     357.633       30.920      1.0        1
     344.981       34.152      1.0        1
     332.331       37.534      1.0        1
     319.680       41.065      1.0        1
     307.030       44.743      1.0        1
     294.380       48.568      1.0        1
     281.730       52.538      1.0        1
     269.082       56.652      1.0        1
     256.434       60.908      1.0        1
     243.786       65.305      1.0        1
     231.140       69.842      1.0        1
     218.494       74.517      1.0        1
     205.850       79.328      1.0        1
     193.207       84.275      1.0        1
     180.566       89.354      1.0        1
     167.926       94.566      1.0        1
     155.288       99.908      1.0        1
     142.652      105.378      1.0        1
     130.018      110.974      1.0        1
     117.387      116.695      1.0        1
     104.758      122.539      1.0        1
      92.133      128.503      1.0        1
      79.511      134.587      1.0        1
      66.893      140.787      1.0        1
      54.278      147.102      1.0        1
      41.669      153.530      1.0        1
      29.064      160.069      1.0        1
      16.464      166.717      1.0        1
       3.869      173.470      1.0        1
     351.281      180.328      1.0        1
     338.700      187.288      1.0        1
     326.126      194.347      1.0        1
     313.559      201.504      1.0        1
     301.000      208.755      1.0        1
     288.451      216.099      1.0        1
     275.911      223.534      1.0        1
     263.380      231.056      1.0        1
     250.861      238.663      1.0        1
     238.353      246.353      1.0        1
     225.858      254.124      1.0        1
     213.376      261.972      1.0        1
     200.907      269.895      1.0        1
     188.453      277.891      1.0        1
     176.015      285.956      1.0        1
     163.594      294.089      1.0        1
     151.190      302.287      1.0        1
     138.804      310.546      1.0        1
     126.438      318.865      1.0        1
     114.092      327.240      1.0        1
     101.768      335.669      1.0        1
      89.467      344.148      1.0        1
      77.190      352.676      1.0        1
      64.937      361.250      1.0        1
      52.712      369.866      1.0        1
      40.513      378.522      1.0        1
      28.344      387.214      1.0        1
      16.205      395.941      1.0        1
       4.097      404.699      1.0        1
     352.023      413.485      1.0        1
     339.983      422.297      1.0        1
     327.979      431.131      1.0        1
     316.013      439.985      1.0        1
     304.085      448.856      1.0        1
     292.198      457.741      1.0        1
     280.354      466.636      1.0        1
     268.553      475.540      1.0        1
     256.798      484.449      1.0        1
     245.090      493.359      1.0        1
     233.432      502.270      1.0        1
     221.824      511.176      1.0        1
     210.268      520.076      1.0        1
     198.768      528.967      1.0        1
     187.323      537.845      1.0        1
     175.937      546.707      1.0        1
     164.612      555.552      1.0        1
     153.348      564.375      1.0        1
     142.148      573.175      1.0        1
     131.015      581.947      1.0        1
     119.950      590.690      1.0        1
     108.955      599.400      1.0        1
      98.033      608.074      1.0        1
      87.185      616.711      1.0        1
      76.413      625.306      1.0        1
      65.721      633.857      1.0        1
      55.109      642.361      1.0        1
      44.580      650.816      1.0        1
      34.137      659.218      1.0        1
      23.781      667.565      1.0        1
      13.515      675.855      1.0        1
       3.341      684.083      1.0        1
     353.261      692.249      1.0        1
     343.277      700.349      1.0        1
     333.392      708.380      1.0        1
     323.608      716.339      1.0        1
     313.928      724.225      1.0        1
     304.353      732.035      1.0        1
     294.886      739.765      1.0        1
     285.529      747.414      1.0        1
     276.285      754.979      1.0        1
     267.155      762.458      1.0        1
     258.142      769.848      1.0        1
     249.249      777.146      1.0        1
     240.477      784.350      1.0        1
     231.829      791.458      1.0        1
     223.306      798.468      1.0        1
     214.913      805.377      1.0        1
     206.649      812.183      1.0        1
     198.519      818.884      1.0        1
     190.523      825.477      1.0        1
     182.665      831.961      1.0        1
     174.945      838.333      1.0        1
     167.368      844.591      1.0        1
     159.933      850.733      1.0        1
     152.645      856.757      1.0        1
     145.504      862.662      1.0        1
     138.512      868.444      1.0        1
     131.673      874.103      1.0        1
     124.987      879.637      1.0        1
     118.457      885.043      1.0        1
     112.084      890.320      1.0        1
     105.871      895.465      1.0        1
      99.819      900.479      1.0        1
      93.931      905.358      1.0        1
      88.207      910.101      1.0        1
      82.650      914.707      1.0        1
      77.261      919.175      1.0        1
      72.042      923.501      1.0        1
      66.995      927.686      1.0        1
      62.120      931.728      1.0        1
      57.421      935.626      1.0        1
      52.897      939.377      1.0        1
      48.551      942.982      1.0        1
      44.384      946.439      1.0        1
      40.397      949.746      1.0        1
      36.592      952.903      1.0        1
      32.969      955.909      1.0        1
      29.530      958.762      1.0        1
      26.275      961.462      1.0        1
      23.207      964.008      1.0        1
      20.326      966.398      1.0        1
      17.632      968.633      1.0        1
      15.128      970.711      1.0        1
      12.812      972.632      1.0        1
      10.687      974.395      1.0        1
       8.753      976.000      1.0        1
       7.011      977.446      1.0        1
       5.461      978.732      1.0        1
       4.103      979.859      1.0        1
       2.939      980.825      1.0        1
       1.968      981.631      1.0        1
       1.191      982.275      1.0        1
       0.608      982.759      1.0        1
       0.219      983.082      1.0        1
       0.024      983.243      2.0        1
       0.219      983.082      1.0        1
       0.608      982.759      1.0        1
       1.191      982.275      1.0        1
       1.968      981.631      1.0        1
       2.939      980.825      1.0        1
       4.103      979.859      1.0        1
       5.461      978.732      1.0        1
       7.011      977.446      1.0        1
       8.753      976.000      1.0        1
      10.687      974.395      1.0        1
      12.812      972.632      1.0        1
      15.128      970.711      1.0        1
      17.632      968.633      1.0        1
      20.326      966.398      1.0        1
      23.207      964.008      1.0        1
      26.275      961.462      1.0        1
      29.530      958.762      1.0        1
      32.969      955.909      1.0        1
      36.592      952.903      1.0        1
      40.397      949.746      1.0        1
      44.384      946.439      1.0        1
      48.551      942.982      1.0        1
      52.897      939.377      1.0        1
      57.421      935.626      1.0        1
      62.120      931.728      1.0        1
      66.995      927.686      1.0        1
      72.042      923.501      1.0        1
      77.261      919.175      1.0        1
      82.650      914.707      1.0        1
      88.207      910.101      1.0        1
      93.931      905.358      1.0        1
      99.819      900.479      1.0        1
     105.871      895.465      1.0        1
     112.084      890.320      1.0        1
     118.457      885.043      1.0        1
     124.987      879.637      1.0        1
     131.673      874.103      1.0        1
     138.512      868.444      1.0        1
     145.504      862.662      1.0        1
     152.645      856.757      1.0        1
     159.933      850.733      1.0        1
     167.368      844.591      1.0        1
     174.945      838.333      1.0        1
     182.665      831.961      1.0        1
     190.523      825.477      1.0        1
     198.519      818.884      1.0        1
     206.649      812.183      1.0        1
     214.913      805.377      1.0        1
     223.306      798.468      1.0        1
     231.829      791.458      1.0        1
     240.477      784.350      1.0        1
     249.249      777.146      1.0        1
     258.142      769.848      1.0        1
     267.155      762.458      1.0        1
     276.285      754.979      1.0        1
     285.529      747.414      1.0        1
     294.886      739.765      1.0        1
     304.353      732.035      1.0        1
     313.928      724.225      1.0        1
     323.608      716.339      1.0        1
     333.392      708.380      1.0        1
     343.277      700.349      1.0        1
     353.261      692.249      1.0        1
       3.341      684.083      1.0        1
      13.515      675.855      1.0        1
      23.781      667.565      1.0        1
      34.137      659.218      1.0        1
      44.580      650.816      1.0        1
      55.109      642.361      1.0        1
      65.721      633.857      1.0        1
      76.413      625.306      1.0        1
      87.185      616.711      1.0        1
      98.033      608.074      1.0        1
     108.955      599.400      1.0        1
     119.950      590.690      1.0        1
     131.015      581.947      1.0        1
     142.148      573.175      1.0        1
     153.348      564.375      1.0        1
     164.612      555.552      1.0        1
     175.937      546.707      1.0        1
     187.323      537.845      1.0        1
     198.768      528.967      1.0        1
     210.268      520.076      1.0        1
     221.824      511.176      1.0        1
     233.432      502.270      1.0        1
     245.090      493.359      1.0        1
     256.798      484.449      1.0        1
     268.553      475.540      1.0        1
     280.354      466.636      1.0        1
     292.198      457.741      1.0        1
     304.085      448.856      1.0        1
     316.013      439.985      1.0        1
     327.979      431.131      1.0        1
     339.983      422.297      1.0        1
     352.023      413.485      1.0        1
       4.097      404.699      1.0        1
      16.205      395.941      1.0        1
      28.344      387.214      1.0        1
      40.513      378.522      1.0        1
      52.712      369.866      1.0        1
      64.937      361.250      1.0        1
      77.190      352.676      1.0        1
      89.467      344.148      1.0        1
     101.768      335.669      1.0        1
     114.092      327.240      1.0        1
     126.438      318.865      1.0        1
     138.804      310.546      1.0        1
     151.190      302.287      1.0        1
     163.594      294.089      1.0        1
     176.015      285.956      1.0        1
     188.453      277.891      1.0        1
     200.907      269.895      1.0        1
     213.376      261.972      1.0        1
     225.858      254.124      1.0        1
     238.353      246.353      1.0        1
     250.861      238.663      1.0        1
     263.380      231.056      1.0        1
     275.911      223.534      1.0        1
     288.451      216.099      1.0        1
     301.000      208.755      1.0        1
     313.559      201.504      1.0        1
     326.126      194.347      1.0        1
     338.700      187.288      1.0        1
     351.281      180.328      1.0        1
       3.869      173.470      1.0        1
      16.464      166.717      1.0        1
      29.064      160.069      1.0        1
      41.669      153.530      1.0        1
      54.278      147.102      1.0        1
      66.893      140.787      1.0        1
      79.511      134.587      1.0        1
      92.133      128.503      1.0        1
     104.758      122.539      1.0        1
     117.387      116.695      1.0        1
     130.018      110.974      1.0        1
     142.652      105.378      1.0        1
     155.288       99.908      1.0        1
     167.926       94.566      1.0        1
     180.566       89.354      1.0        1
     193.207       84.275      1.0        1
     205.850       79.328      1.0        1
     218.494       74.517      1.0        1
     231.140       69.842      1.0        1
     243.786       65.305      1.0        1
     256.434       60.908      1.0        1
     269.082       56.652      1.0        1
     281.730       52.538      1.0        1
     294.380       48.568      1.0        1
     307.030       44.743      1.0        1
     319.680       41.065      1.0        1
     332.331       37.534      1.0        1
     344.981       34.152      1.0        1
     357.633       30.920      1.0        1
      10.284       27.838      1.0        1
      22.935       24.909      1.0        1
      35.587       22.132      1.0        1
      48.239       19.509      1.0        1
      60.891       17.041      1.0        1
      73.543       14.728      1.0        1
      86.195       12.572      1.0        1
      98.847       10.572      1.0        1
     111.499        8.730      1.0        1
     124.151        7.046      1.0        1
     136.803        5.520      1.0        1
     149.455        4.154      1.0        1
     162.107        2.948      1.0        1
     174.759        1.902      1.0        1
     187.411        1.016      1.0        1
     200.063        0.290      1.0        1
     212.715        0.000      1.0        1
     225.367        0.000      1.0        0
     238.019        0.000      1.0        0
       0.000        0.000      1.0        0
