# Pbox  30000.00  34 4095  0.0     0    1.0000 1.56036     6
# VJ4.2  pw (us)  pwr  pwrf  dres  dmf  dcyc   B1max (kHz)  Stype
# ---------------------------------------------------------------
# Pxsim 0.0300000 1525.3935 0.000 246710.4 0.0000000 0.0000000 0.00
# data: pw (s) B1max (Hz) status sw (Hz) T1 (s)   T2 (s) RDC (Hz)
# ---------------------------------------------------------------
# Pbox.inp data :
# ~~~~~~~~~~~~~~~~~~~~~~~~~~~Waves~~~~~~~~~~~~~~~~~~~~~~~~~~~~~~~~~~
#   shape   bw(/pw)   ofs  st  ph  fla  trev  d1  d2   d0   wrp  php
# ~~~~~~~~~~~~~~~~~~~~~~~~~~~~~~~~~~~~~~~~~~~~~~~~~~~~~~~~~~~~~~~~~~
# { wurst2i 41118.4/0.0300000 }
#
# type      = r          mod       = n          dres      = n         
# steps     = n          stepsize  = 10.00      attn      = i         
# refofs    = n          wrap      = n          sfrq      = n         
# sucyc     = d          reps      = 2          header    = y         
# bscor     = n          pad1      = n          pad2      = n         
# bsim      = n          T1        = n          T2        = n         
# rdc       = n          dcyc      = n          sw        = n         
#
# RF Calibration Data :  ref_pwr   = 60         ref_pw90  = 8.03
# ~~~~~~~~~~~~~~~~~~~~~
###
# ------------------- Shape data ------------------
# pwtot      = 0.0300000 (total pw, s)
# power      = 34 (power level, dB)
# pwrf       = 4095 (fine power)
# B1max      = 1.5604 (B1max, kHz)
# B1rms      = 0.9340 (B1[RMS], kHz)
# nptot      = 3000 (total number of steps)
# stepsize   = 10.00 (length of a single step, us)
# maxamp     = 1001.1 (max amplitude)
# ------------------------------------------------- 
#      phase      amplitude   length     gate 
# ------------------------------------------------- 
        0.00      1023.00      0.0        0
       0.000        0.000      1.0        0
     247.810        0.000      1.0        0
     321.848        0.000      1.0        0
      35.886        0.000      1.0        0
     109.924        0.000      1.0        0
     183.961        0.000      1.0        0
     257.999        0.000      1.0        0
     332.037        0.000      1.0        0
      46.075        0.000      1.0        0
     120.112        0.000      1.0        0
     194.150        0.000      1.0        0
     268.188        0.000      1.0        0
     342.226        0.000      1.0        0
      56.264        0.000      1.0        0
     130.301        0.000      1.0        0
     204.339        0.000      1.0        0
     278.377        0.000      1.0        0
     352.415        0.000      1.0        0
      66.453        0.000      1.0        0
     140.490        0.000      1.0        0
     214.528        0.000      1.0        0
     288.566        0.000      1.0        0
       2.604        0.000      1.0        1
      76.642        0.000      1.0        1
     150.679        0.000      1.0        1
     224.717        0.000      1.0        1
     298.755        0.000      1.0        1
      12.793        0.000      1.0        1
      86.831        0.000      1.0        1
     160.868        0.000      1.0        1
     234.906        0.000      1.0        1
     308.944        0.055      1.0        1
      22.982        0.124      1.0        1
      97.020        0.196      1.0        1
     171.057        0.269      1.0        1
     245.095        0.345      1.0        1
     319.133        0.423      1.0        1
      33.171        0.503      1.0        1
     107.209        0.585      1.0        1
     181.246        0.670      1.0        1
     255.284        0.757      1.0        1
     329.322        0.845      1.0        1
      43.360        0.937      1.0        1
     117.398        1.030      1.0        1
     191.435        1.125      1.0        1
     265.473        1.223      1.0        1
     339.511        1.323      1.0        1
      53.549        1.425      1.0        1
     127.587        1.529      1.0        1
     201.624        1.635      1.0        1
     275.662        1.744      1.0        1
     349.700        1.855      1.0        1
      63.738        1.967      1.0        1
     137.776        2.083      1.0        1
     211.813        2.200      1.0        1
     285.851        2.319      1.0        1
     359.889        2.441      1.0        1
      73.927        2.565      1.0        1
     147.964        2.691      1.0        1
     222.002        2.819      1.0        1
     296.040        2.949      1.0        1
      10.078        3.082      1.0        1
      84.116        3.217      1.0        1
     158.153        3.354      1.0        1
     232.191        3.493      1.0        1
     306.229        3.634      1.0        1
      20.267        3.777      1.0        1
      94.304        3.923      1.0        1
     168.342        4.071      1.0        1
     242.380        4.221      1.0        1
     316.418        4.373      1.0        1
      30.455        4.527      1.0        1
     104.493        4.684      1.0        1
     178.531        4.843      1.0        1
     252.569        5.003      1.0        1
     326.606        5.166      1.0        1
      40.644        5.332      1.0        1
     114.682        5.499      1.0        1
     188.719        5.668      1.0        1
     262.757        5.840      1.0        1
     336.795        6.014      1.0        1
      50.833        6.190      1.0        1
     124.870        6.368      1.0        1
     198.908        6.549      1.0        1
     272.946        6.731      1.0        1
     346.983        6.916      1.0        1
      61.021        7.103      1.0        1
     135.059        7.292      1.0        1
     209.096        7.483      1.0        1
     283.134        7.676      1.0        1
     357.171        7.872      1.0        1
      71.209        8.069      1.0        1
     145.247        8.269      1.0        1
     219.284        8.471      1.0        1
     293.322        8.675      1.0        1
       7.359        8.881      1.0        1
      81.397        9.090      1.0        1
     155.434        9.300      1.0        1
     229.472        9.513      1.0        1
     303.509        9.728      1.0        1
      17.547        9.945      1.0        1
      91.584       10.164      1.0        1
     165.622       10.385      1.0        1
     239.659       10.609      1.0        1
     313.697       10.835      1.0        1
      27.734       11.062      1.0        1
     101.772       11.292      1.0        1
     175.809       11.524      1.0        1
     249.846       11.758      1.0        1
     323.884       11.995      1.0        1
      37.921       12.233      1.0        1
     111.958       12.474      1.0        1
     185.995       12.717      1.0        1
     260.033       12.961      1.0        1
     334.070       13.209      1.0        1
      48.107       13.458      1.0        1
     122.144       13.709      1.0        1
     196.181       13.962      1.0        1
     270.218       14.218      1.0        1
     344.255       14.476      1.0        1
      58.293       14.735      1.0        1
     132.330       14.997      1.0        1
     206.366       15.261      1.0        1
     280.403       15.528      1.0        1
     354.440       15.796      1.0        1
      68.477       16.066      1.0        1
     142.514       16.339      1.0        1
     216.551       16.614      1.0        1
     290.588       16.890      1.0        1
       4.624       17.169      1.0        1
      78.661       17.450      1.0        1
     152.697       17.734      1.0        1
     226.734       18.019      1.0        1
     300.771       18.306      1.0        1
      14.807       18.596      1.0        1
      88.843       18.887      1.0        1
     162.880       19.181      1.0        1
     236.916       19.477      1.0        1
     310.952       19.775      1.0        1
      24.989       20.075      1.0        1
      99.025       20.377      1.0        1
     173.061       20.681      1.0        1
     247.097       20.987      1.0        1
     321.133       21.296      1.0        1
      35.169       21.606      1.0        1
     109.204       21.919      1.0        1
     183.240       22.234      1.0        1
     257.276       22.551      1.0        1
     331.312       22.870      1.0        1
      45.347       23.191      1.0        1
     119.383       23.514      1.0        1
     193.418       23.839      1.0        1
     267.453       24.166      1.0        1
     341.488       24.496      1.0        1
      55.524       24.827      1.0        1
     129.559       25.161      1.0        1
     203.594       25.496      1.0        1
     277.628       25.834      1.0        1
     351.663       26.174      1.0        1
      65.698       26.516      1.0        1
     139.732       26.860      1.0        1
     213.767       27.206      1.0        1
     287.801       27.554      1.0        1
       1.835       27.904      1.0        1
      75.870       28.256      1.0        1
     149.904       28.610      1.0        1
     223.938       28.967      1.0        1
     297.971       29.325      1.0        1
      12.005       29.686      1.0        1
      86.039       30.048      1.0        1
     160.072       30.413      1.0        1
     234.105       30.779      1.0        1
     308.139       31.148      1.0        1
      22.172       31.519      1.0        1
      96.204       31.892      1.0        1
     170.237       32.267      1.0        1
     244.270       32.644      1.0        1
     318.302       33.023      1.0        1
      32.335       33.404      1.0        1
     106.367       33.787      1.0        1
     180.399       34.172      1.0        1
     254.431       34.559      1.0        1
     328.462       34.948      1.0        1
      42.494       35.340      1.0        1
     116.525       35.733      1.0        1
     190.556       36.128      1.0        1
     264.587       36.526      1.0        1
     338.618       36.925      1.0        1
      52.648       37.326      1.0        1
     126.679       37.730      1.0        1
     200.709       38.135      1.0        1
     274.739       38.543      1.0        1
     348.769       38.952      1.0        1
      62.798       39.364      1.0        1
     136.828       39.778      1.0        1
     210.857       40.193      1.0        1
     284.886       40.611      1.0        1
     358.915       41.030      1.0        1
      72.943       41.452      1.0        1
     146.971       41.876      1.0        1
     220.999       42.301      1.0        1
     295.027       42.729      1.0        1
       9.054       43.159      1.0        1
      83.082       43.590      1.0        1
     157.109       44.024      1.0        1
     231.135       44.460      1.0        1
     305.162       44.897      1.0        1
      19.188       45.337      1.0        1
      93.214       45.779      1.0        1
     167.239       46.222      1.0        1
     241.265       46.668      1.0        1
     315.290       47.116      1.0        1
      29.314       47.565      1.0        1
     103.339       48.017      1.0        1
     177.363       48.470      1.0        1
     251.387       48.926      1.0        1
     325.410       49.383      1.0        1
      39.433       49.843      1.0        1
     113.456       50.304      1.0        1
     187.478       50.768      1.0        1
     261.500       51.233      1.0        1
     335.522       51.701      1.0        1
      49.543       52.170      1.0        1
     123.564       52.641      1.0        1
     197.585       53.115      1.0        1
     271.605       53.590      1.0        1
     345.625       54.067      1.0        1
      59.644       54.546      1.0        1
     133.663       55.027      1.0        1
     207.682       55.510      1.0        1
     281.700       55.995      1.0        1
     355.718       56.482      1.0        1
      69.735       56.971      1.0        1
     143.752       57.462      1.0        1
     217.768       57.955      1.0        1
     291.784       58.450      1.0        1
       5.800       58.946      1.0        1
      79.815       59.445      1.0        1
     153.829       59.945      1.0        1
     227.843       60.448      1.0        1
     301.857       60.952      1.0        1
      15.870       61.459      1.0        1
      89.882       61.967      1.0        1
     163.894       62.477      1.0        1
     237.906       62.989      1.0        1
     311.917       63.503      1.0        1
      25.927       64.019      1.0        1
      99.937       64.537      1.0        1
     173.946       65.056      1.0        1
     247.955       65.578      1.0        1
     321.963       66.102      1.0        1
      35.971       66.627      1.0        1
     109.977       67.154      1.0        1
     183.984       67.684      1.0        1
     257.990       68.215      1.0        1
     331.995       68.748      1.0        1
      45.999       69.283      1.0        1
     120.003       69.819      1.0        1
     194.006       70.358      1.0        1
     268.008       70.899      1.0        1
     342.010       71.441      1.0        1
      56.011       71.986      1.0        1
     130.012       72.532      1.0        1
     204.011       73.080      1.0        1
     278.010       73.630      1.0        1
     352.008       74.182      1.0        1
      66.006       74.735      1.0        1
     140.003       75.291      1.0        1
     213.999       75.848      1.0        1
     287.994       76.408      1.0        1
       1.988       76.969      1.0        1
      75.982       77.532      1.0        1
     149.975       78.096      1.0        1
     223.967       78.663      1.0        1
     297.958       79.232      1.0        1
      11.948       79.802      1.0        1
      85.937       80.374      1.0        1
     159.926       80.948      1.0        1
     233.914       81.524      1.0        1
     307.900       82.102      1.0        1
      21.886       82.682      1.0        1
      95.871       83.263      1.0        1
     169.855       83.846      1.0        1
     243.838       84.431      1.0        1
     317.820       85.018      1.0        1
      31.802       85.607      1.0        1
     105.782       86.197      1.0        1
     179.761       86.790      1.0        1
     253.739       87.384      1.0        1
     327.716       87.980      1.0        1
      41.692       88.578      1.0        1
     115.667       89.177      1.0        1
     189.641       89.778      1.0        1
     263.614       90.382      1.0        1
     337.586       90.987      1.0        1
      51.557       91.593      1.0        1
     125.526       92.202      1.0        1
     199.495       92.812      1.0        1
     273.462       93.424      1.0        1
     347.428       94.038      1.0        1
      61.393       94.654      1.0        1
     135.356       95.271      1.0        1
     209.319       95.890      1.0        1
     283.280       96.511      1.0        1
     357.240       97.134      1.0        1
      71.199       97.759      1.0        1
     145.156       98.385      1.0        1
     219.112       99.013      1.0        1
     293.067       99.643      1.0        1
       7.021      100.274      1.0        1
      80.973      100.908      1.0        1
     154.924      101.543      1.0        1
     228.873      102.180      1.0        1
     302.821      102.818      1.0        1
      16.768      103.459      1.0        1
      90.713      104.101      1.0        1
     164.656      104.744      1.0        1
     238.599      105.390      1.0        1
     312.539      106.037      1.0        1
      26.479      106.686      1.0        1
     100.416      107.337      1.0        1
     174.353      107.989      1.0        1
     248.287      108.643      1.0        1
     322.220      109.299      1.0        1
      36.152      109.957      1.0        1
     110.081      110.616      1.0        1
     184.010      111.277      1.0        1
     257.936      111.940      1.0        1
     331.861      112.604      1.0        1
      45.784      113.270      1.0        1
     119.706      113.938      1.0        1
     193.625      114.607      1.0        1
     267.543      115.278      1.0        1
     341.459      115.951      1.0        1
      55.374      116.626      1.0        1
     129.286      117.302      1.0        1
     203.197      117.980      1.0        1
     277.106      118.660      1.0        1
     351.013      119.341      1.0        1
      64.918      120.024      1.0        1
     138.821      120.708      1.0        1
     212.722      121.394      1.0        1
     286.621      122.082      1.0        1
       0.519      122.772      1.0        1
      74.414      123.463      1.0        1
     148.307      124.156      1.0        1
     222.198      124.850      1.0        1
     296.087      125.547      1.0        1
       9.974      126.244      1.0        1
      83.859      126.944      1.0        1
     157.742      127.645      1.0        1
     231.622      128.348      1.0        1
     305.500      129.052      1.0        1
      19.377      129.758      1.0        1
      93.250      130.465      1.0        1
     167.122      131.175      1.0        1
     240.991      131.885      1.0        1
     314.858      132.598      1.0        1
      28.723      133.312      1.0        1
     102.585      134.027      1.0        1
     176.445      134.745      1.0        1
     250.302      135.464      1.0        1
     324.157      136.184      1.0        1
      38.010      136.906      1.0        1
     111.860      137.630      1.0        1
     185.707      138.355      1.0        1
     259.552      139.082      1.0        1
     333.394      139.810      1.0        1
      47.234      140.540      1.0        1
     121.071      141.272      1.0        1
     194.906      142.005      1.0        1
     268.737      142.739      1.0        1
     342.566      143.476      1.0        1
      56.393      144.213      1.0        1
     130.216      144.953      1.0        1
     204.037      145.694      1.0        1
     277.855      146.436      1.0        1
     351.670      147.180      1.0        1
      65.482      147.926      1.0        1
     139.291      148.673      1.0        1
     213.098      149.422      1.0        1
     286.901      150.172      1.0        1
       0.701      150.923      1.0        1
      74.498      151.677      1.0        1
     148.293      152.431      1.0        1
     222.084      153.188      1.0        1
     295.872      153.946      1.0        1
       9.657      154.705      1.0        1
      83.438      155.466      1.0        1
     157.217      156.228      1.0        1
     230.992      156.992      1.0        1
     304.764      157.757      1.0        1
      18.533      158.524      1.0        1
      92.298      159.293      1.0        1
     166.060      160.063      1.0        1
     239.818      160.834      1.0        1
     313.573      161.607      1.0        1
      27.325      162.381      1.0        1
     101.073      163.157      1.0        1
     174.817      163.934      1.0        1
     248.558      164.713      1.0        1
     322.296      165.493      1.0        1
      36.029      166.275      1.0        1
     109.759      167.058      1.0        1
     183.486      167.843      1.0        1
     257.208      168.629      1.0        1
     330.927      169.416      1.0        1
      44.642      170.205      1.0        1
     118.353      170.996      1.0        1
     192.060      171.788      1.0        1
     265.764      172.581      1.0        1
     339.463      173.376      1.0        1
      53.158      174.172      1.0        1
     126.850      174.969      1.0        1
     200.537      175.768      1.0        1
     274.220      176.569      1.0        1
     347.899      177.371      1.0        1
      61.574      178.174      1.0        1
     135.245      178.979      1.0        1
     208.911      179.785      1.0        1
     282.573      180.592      1.0        1
     356.231      181.401      1.0        1
      69.884      182.211      1.0        1
     143.533      183.023      1.0        1
     217.178      183.836      1.0        1
     290.818      184.651      1.0        1
       4.453      185.466      1.0        1
      78.084      186.284      1.0        1
     151.710      187.102      1.0        1
     225.332      187.922      1.0        1
     298.949      188.744      1.0        1
      12.561      189.566      1.0        1
      86.169      190.390      1.0        1
     159.771      191.216      1.0        1
     233.369      192.043      1.0        1
     306.962      192.871      1.0        1
      20.550      193.700      1.0        1
      94.133      194.531      1.0        1
     167.711      195.363      1.0        1
     241.284      196.197      1.0        1
     314.851      197.031      1.0        1
      28.414      197.867      1.0        1
     101.971      198.705      1.0        1
     175.524      199.544      1.0        1
     249.071      200.384      1.0        1
     322.612      201.225      1.0        1
      36.148      202.068      1.0        1
     109.679      202.912      1.0        1
     183.204      203.757      1.0        1
     256.724      204.604      1.0        1
     330.239      205.452      1.0        1
      43.747      206.301      1.0        1
     117.250      207.152      1.0        1
     190.748      208.003      1.0        1
     264.239      208.856      1.0        1
     337.725      209.711      1.0        1
      51.205      210.566      1.0        1
     124.679      211.423      1.0        1
     198.147      212.281      1.0        1
     271.609      213.141      1.0        1
     345.065      214.002      1.0        1
      58.515      214.863      1.0        1
     131.959      215.727      1.0        1
     205.397      216.591      1.0        1
     278.829      217.457      1.0        1
     352.254      218.324      1.0        1
      65.673      219.192      1.0        1
     139.086      220.061      1.0        1
     212.492      220.932      1.0        1
     285.892      221.803      1.0        1
     359.285      222.676      1.0        1
      72.671      223.551      1.0        1
     146.051      224.426      1.0        1
     219.425      225.303      1.0        1
     292.791      226.181      1.0        1
       6.151      227.060      1.0        1
      79.504      227.940      1.0        1
     152.850      228.821      1.0        1
     226.189      229.704      1.0        1
     299.521      230.588      1.0        1
      12.846      231.473      1.0        1
      86.164      232.359      1.0        1
     159.475      233.246      1.0        1
     232.779      234.135      1.0        1
     306.075      235.025      1.0        1
      19.364      235.916      1.0        1
      92.646      236.808      1.0        1
     165.920      237.701      1.0        1
     239.187      238.595      1.0        1
     312.446      239.490      1.0        1
      25.698      240.387      1.0        1
      98.942      241.285      1.0        1
     172.178      242.184      1.0        1
     245.406      243.084      1.0        1
     318.627      243.985      1.0        1
      31.840      244.887      1.0        1
     105.045      245.790      1.0        1
     178.242      246.695      1.0        1
     251.430      247.600      1.0        1
     324.611      248.507      1.0        1
      37.783      249.415      1.0        1
     110.948      250.324      1.0        1
     184.104      251.234      1.0        1
     257.251      252.145      1.0        1
     330.390      253.057      1.0        1
      43.521      253.970      1.0        1
     116.643      254.885      1.0        1
     189.757      255.800      1.0        1
     262.861      256.716      1.0        1
     335.957      257.634      1.0        1
      49.045      258.553      1.0        1
     122.123      259.472      1.0        1
     195.193      260.393      1.0        1
     268.253      261.315      1.0        1
     341.305      262.237      1.0        1
      54.347      263.161      1.0        1
     127.381      264.086      1.0        1
     200.405      265.012      1.0        1
     273.420      265.939      1.0        1
     346.425      266.867      1.0        1
      59.421      267.796      1.0        1
     132.407      268.726      1.0        1
     205.384      269.657      1.0        1
     278.352      270.589      1.0        1
     351.309      271.522      1.0        1
      64.257      272.456      1.0        1
     137.195      273.391      1.0        1
     210.123      274.327      1.0        1
     283.041      275.264      1.0        1
     355.949      276.202      1.0        1
      68.847      277.141      1.0        1
     141.735      278.081      1.0        1
     214.613      279.022      1.0        1
     287.480      279.964      1.0        1
       0.337      280.907      1.0        1
      73.184      281.850      1.0        1
     146.020      282.795      1.0        1
     218.845      283.741      1.0        1
     291.660      284.688      1.0        1
       4.464      285.635      1.0        1
      77.257      286.584      1.0        1
     150.040      287.533      1.0        1
     222.811      288.484      1.0        1
     295.571      289.435      1.0        1
       8.321      290.387      1.0        1
      81.059      291.340      1.0        1
     153.786      292.295      1.0        1
     226.502      293.250      1.0        1
     299.206      294.205      1.0        1
      11.899      295.162      1.0        1
      84.580      296.120      1.0        1
     157.250      297.079      1.0        1
     229.908      298.038      1.0        1
     302.554      298.998      1.0        1
      15.189      299.960      1.0        1
      87.811      300.922      1.0        1
     160.422      301.885      1.0        1
     233.020      302.849      1.0        1
     305.607      303.813      1.0        1
      18.181      304.779      1.0        1
      90.743      305.745      1.0        1
     163.292      306.713      1.0        1
     235.829      307.681      1.0        1
     308.354      308.650      1.0        1
      20.866      309.620      1.0        1
      93.365      310.590      1.0        1
     165.852      311.562      1.0        1
     238.326      312.534      1.0        1
     310.786      313.507      1.0        1
      23.234      314.481      1.0        1
      95.669      315.456      1.0        1
     168.091      316.432      1.0        1
     240.499      317.408      1.0        1
     312.894      318.385      1.0        1
      25.275      319.363      1.0        1
      97.644      320.342      1.0        1
     169.998      321.321      1.0        1
     242.339      322.302      1.0        1
     314.666      323.283      1.0        1
      26.980      324.265      1.0        1
      99.279      325.247      1.0        1
     171.565      326.231      1.0        1
     243.836      327.215      1.0        1
     316.093      328.200      1.0        1
      28.336      329.186      1.0        1
     100.565      330.172      1.0        1
     172.779      331.159      1.0        1
     244.979      332.147      1.0        1
     317.164      333.136      1.0        1
      29.335      334.125      1.0        1
     101.490      335.115      1.0        1
     173.631      336.106      1.0        1
     245.757      337.098      1.0        1
     317.868      338.090      1.0        1
      29.964      339.083      1.0        1
     102.045      340.076      1.0        1
     174.110      341.071      1.0        1
     246.160      342.066      1.0        1
     318.195      343.062      1.0        1
      30.214      344.058      1.0        1
     102.217      345.055      1.0        1
     174.205      346.053      1.0        1
     246.177      347.051      1.0        1
     318.132      348.051      1.0        1
      30.072      349.050      1.0        1
     101.996      350.051      1.0        1
     173.904      351.052      1.0        1
     245.795      352.054      1.0        1
     317.670      353.056      1.0        1
      29.528      354.059      1.0        1
     101.370      355.063      1.0        1
     173.195      356.067      1.0        1
     245.004      357.072      1.0        1
     316.796      358.078      1.0        1
      28.570      359.084      1.0        1
     100.328      360.091      1.0        1
     172.068      361.098      1.0        1
     243.792      362.106      1.0        1
     315.498      363.115      1.0        1
      27.186      364.124      1.0        1
      98.857      365.134      1.0        1
     170.511      366.145      1.0        1
     242.146      367.156      1.0        1
     313.764      368.167      1.0        1
      25.364      369.179      1.0        1
      96.946      370.192      1.0        1
     168.510      371.205      1.0        1
     240.056      372.219      1.0        1
     311.583      373.234      1.0        1
      23.092      374.249      1.0        1
      94.583      375.264      1.0        1
     166.054      376.280      1.0        1
     237.508      377.297      1.0        1
     308.942      378.314      1.0        1
      20.357      379.332      1.0        1
      91.754      380.350      1.0        1
     163.131      381.369      1.0        1
     234.489      382.388      1.0        1
     305.828      383.408      1.0        1
      17.148      384.428      1.0        1
      88.448      385.449      1.0        1
     159.728      386.470      1.0        1
     230.988      387.492      1.0        1
     302.229      388.514      1.0        1
      13.450      389.537      1.0        1
      84.651      390.560      1.0        1
     155.831      391.584      1.0        1
     226.992      392.608      1.0        1
     298.132      393.633      1.0        1
       9.251      394.658      1.0        1
      80.350      395.684      1.0        1
     151.428      396.710      1.0        1
     222.486      397.736      1.0        1
     293.522      398.763      1.0        1
       4.538      399.791      1.0        1
      75.533      400.819      1.0        1
     146.506      401.847      1.0        1
     217.458      402.876      1.0        1
     288.388      403.905      1.0        1
     359.297      404.934      1.0        1
      70.185      405.964      1.0        1
     141.050      406.995      1.0        1
     211.894      408.025      1.0        1
     282.716      409.057      1.0        1
     353.515      410.088      1.0        1
      64.293      411.120      1.0        1
     135.048      412.152      1.0        1
     205.781      413.185      1.0        1
     276.491      414.218      1.0        1
     347.178      415.252      1.0        1
      57.843      416.286      1.0        1
     128.485      417.320      1.0        1
     199.104      418.354      1.0        1
     269.700      419.389      1.0        1
     340.272      420.425      1.0        1
      50.821      421.460      1.0        1
     121.347      422.496      1.0        1
     191.849      423.533      1.0        1
     262.328      424.569      1.0        1
     332.783      425.606      1.0        1
      43.213      426.644      1.0        1
     113.620      427.681      1.0        1
     184.003      428.719      1.0        1
     254.361      429.758      1.0        1
     324.695      430.796      1.0        1
      35.005      431.835      1.0        1
     105.290      432.874      1.0        1
     175.550      433.914      1.0        1
     245.785      434.953      1.0        1
     315.995      435.993      1.0        1
      26.181      437.034      1.0        1
      96.341      438.074      1.0        1
     166.475      439.115      1.0        1
     236.585      440.156      1.0        1
     306.668      441.198      1.0        1
      16.726      442.239      1.0        1
      86.758      443.281      1.0        1
     156.765      444.323      1.0        1
     226.745      445.366      1.0        1
     296.699      446.408      1.0        1
       6.626      447.451      1.0        1
      76.528      448.494      1.0        1
     146.402      449.537      1.0        1
     216.250      450.581      1.0        1
     286.072      451.625      1.0        1
     355.866      452.669      1.0        1
      65.633      453.713      1.0        1
     135.374      454.757      1.0        1
     205.086      455.802      1.0        1
     274.772      456.846      1.0        1
     344.430      457.891      1.0        1
      54.060      458.936      1.0        1
     123.662      459.982      1.0        1
     193.237      461.027      1.0        1
     262.783      462.073      1.0        1
     332.302      463.119      1.0        1
      41.792      464.165      1.0        1
     111.253      465.211      1.0        1
     180.686      466.257      1.0        1
     250.090      467.303      1.0        1
     319.466      468.350      1.0        1
      28.812      469.397      1.0        1
      98.130      470.443      1.0        1
     167.418      471.490      1.0        1
     236.677      472.537      1.0        1
     305.907      473.585      1.0        1
      15.106      474.632      1.0        1
      84.277      475.679      1.0        1
     153.417      476.727      1.0        1
     222.527      477.774      1.0        1
     291.607      478.822      1.0        1
       0.657      479.870      1.0        1
      69.677      480.918      1.0        1
     138.666      481.966      1.0        1
     207.624      483.014      1.0        1
     276.552      484.062      1.0        1
     345.449      485.110      1.0        1
      54.314      486.158      1.0        1
     123.149      487.207      1.0        1
     191.952      488.255      1.0        1
     260.724      489.303      1.0        1
     329.464      490.352      1.0        1
      38.172      491.400      1.0        1
     106.849      492.449      1.0        1
     175.493      493.497      1.0        1
     244.106      494.546      1.0        1
     312.686      495.595      1.0        1
      21.234      496.643      1.0        1
      89.749      497.692      1.0        1
     158.232      498.741      1.0        1
     226.681      499.789      1.0        1
     295.098      500.838      1.0        1
       3.482      501.886      1.0        1
      71.832      502.935      1.0        1
     140.149      503.984      1.0        1
     208.433      505.032      1.0        1
     276.683      506.081      1.0        1
     344.899      507.129      1.0        1
      53.081      508.178      1.0        1
     121.229      509.226      1.0        1
     189.343      510.275      1.0        1
     257.423      511.323      1.0        1
     325.468      512.372      1.0        1
      33.479      513.420      1.0        1
     101.454      514.468      1.0        1
     169.395      515.516      1.0        1
     237.301      516.564      1.0        1
     305.172      517.612      1.0        1
      13.007      518.660      1.0        1
      80.807      519.708      1.0        1
     148.571      520.756      1.0        1
     216.299      521.803      1.0        1
     283.992      522.851      1.0        1
     351.648      523.899      1.0        1
      59.268      524.946      1.0        1
     126.852      525.993      1.0        1
     194.399      527.040      1.0        1
     261.910      528.087      1.0        1
     329.384      529.134      1.0        1
      36.821      530.181      1.0        1
     104.221      531.227      1.0        1
     171.584      532.274      1.0        1
     238.909      533.320      1.0        1
     306.197      534.366      1.0        1
      13.447      535.412      1.0        1
      80.660      536.458      1.0        1
     147.834      537.504      1.0        1
     214.971      538.550      1.0        1
     282.069      539.595      1.0        1
     349.128      540.640      1.0        1
      56.149      541.685      1.0        1
     123.132      542.730      1.0        1
     190.076      543.775      1.0        1
     256.980      544.819      1.0        1
     323.846      545.863      1.0        1
      30.672      546.907      1.0        1
      97.459      547.951      1.0        1
     164.206      548.995      1.0        1
     230.913      550.038      1.0        1
     297.581      551.081      1.0        1
       4.208      552.124      1.0        1
      70.795      553.167      1.0        1
     137.342      554.210      1.0        1
     203.849      555.252      1.0        1
     270.314      556.294      1.0        1
     336.739      557.336      1.0        1
      43.123      558.377      1.0        1
     109.466      559.418      1.0        1
     175.768      560.459      1.0        1
     242.028      561.500      1.0        1
     308.247      562.541      1.0        1
      14.423      563.581      1.0        1
      80.558      564.621      1.0        1
     146.651      565.660      1.0        1
     212.702      566.700      1.0        1
     278.711      567.739      1.0        1
     344.677      568.777      1.0        1
      50.600      569.816      1.0        1
     116.480      570.854      1.0        1
     182.318      571.892      1.0        1
     248.112      572.929      1.0        1
     313.863      573.966      1.0        1
      19.571      575.003      1.0        1
      85.235      576.040      1.0        1
     150.855      577.076      1.0        1
     216.432      578.112      1.0        1
     281.964      579.147      1.0        1
     347.452      580.182      1.0        1
      52.896      581.217      1.0        1
     118.295      582.251      1.0        1
     183.650      583.285      1.0        1
     248.960      584.319      1.0        1
     314.224      585.352      1.0        1
      19.444      586.385      1.0        1
      84.618      587.418      1.0        1
     149.746      588.450      1.0        1
     214.829      589.482      1.0        1
     279.867      590.513      1.0        1
     344.858      591.544      1.0        1
      49.803      592.575      1.0        1
     114.702      593.605      1.0        1
     179.554      594.635      1.0        1
     244.360      595.664      1.0        1
     309.119      596.693      1.0        1
      13.831      597.721      1.0        1
      78.496      598.749      1.0        1
     143.113      599.777      1.0        1
     207.684      600.804      1.0        1
     272.206      601.831      1.0        1
     336.681      602.857      1.0        1
      41.108      603.883      1.0        1
     105.487      604.908      1.0        1
     169.818      605.933      1.0        1
     234.100      606.958      1.0        1
     298.334      607.982      1.0        1
       2.519      609.005      1.0        1
      66.655      610.028      1.0        1
     130.742      611.051      1.0        1
     194.780      612.073      1.0        1
     258.768      613.094      1.0        1
     322.707      614.115      1.0        1
      26.596      615.136      1.0        1
      90.436      616.156      1.0        1
     154.225      617.176      1.0        1
     217.964      618.195      1.0        1
     281.653      619.213      1.0        1
     345.291      620.231      1.0        1
      48.878      621.248      1.0        1
     112.415      622.265      1.0        1
     175.900      623.282      1.0        1
     239.334      624.298      1.0        1
     302.717      625.313      1.0        1
       6.049      626.328      1.0        1
      69.328      627.342      1.0        1
     132.556      628.355      1.0        1
     195.732      629.368      1.0        1
     258.856      630.381      1.0        1
     321.927      631.393      1.0        1
      24.945      632.404      1.0        1
      87.911      633.415      1.0        1
     150.824      634.425      1.0        1
     213.684      635.434      1.0        1
     276.491      636.443      1.0        1
     339.245      637.452      1.0        1
      41.944      638.460      1.0        1
     104.591      639.467      1.0        1
     167.183      640.473      1.0        1
     229.721      641.479      1.0        1
     292.205      642.484      1.0        1
     354.634      643.489      1.0        1
      57.009      644.493      1.0        1
     119.329      645.496      1.0        1
     181.595      646.499      1.0        1
     243.805      647.501      1.0        1
     305.960      648.503      1.0        1
       8.059      649.504      1.0        1
      70.103      650.504      1.0        1
     132.091      651.503      1.0        1
     194.023      652.502      1.0        1
     255.900      653.500      1.0        1
     317.719      654.498      1.0        1
      19.483      655.494      1.0        1
      81.189      656.490      1.0        1
     142.839      657.486      1.0        1
     204.432      658.481      1.0        1
     265.968      659.475      1.0        1
     327.447      660.468      1.0        1
      28.868      661.460      1.0        1
      90.231      662.452      1.0        1
     151.536      663.444      1.0        1
     212.784      664.434      1.0        1
     273.973      665.424      1.0        1
     335.104      666.413      1.0        1
      36.177      667.401      1.0        1
      97.190      668.389      1.0        1
     158.145      669.375      1.0        1
     219.041      670.361      1.0        1
     279.878      671.347      1.0        1
     340.655      672.331      1.0        1
      41.372      673.315      1.0        1
     102.030      674.298      1.0        1
     162.628      675.280      1.0        1
     223.166      676.262      1.0        1
     283.644      677.243      1.0        1
     344.061      678.223      1.0        1
      44.417      679.202      1.0        1
     104.713      680.180      1.0        1
     164.948      681.158      1.0        1
     225.122      682.134      1.0        1
     285.234      683.110      1.0        1
     345.285      684.086      1.0        1
      45.274      685.060      1.0        1
     105.201      686.033      1.0        1
     165.067      687.006      1.0        1
     224.870      687.978      1.0        1
     284.611      688.949      1.0        1
     344.289      689.919      1.0        1
      43.904      690.889      1.0        1
     103.457      691.857      1.0        1
     162.947      692.825      1.0        1
     222.373      693.792      1.0        1
     281.736      694.758      1.0        1
     341.035      695.723      1.0        1
      40.270      696.687      1.0        1
      99.442      697.651      1.0        1
     158.549      698.613      1.0        1
     217.592      699.575      1.0        1
     276.571      700.536      1.0        1
     335.485      701.496      1.0        1
      34.334      702.455      1.0        1
      93.118      703.413      1.0        1
     151.837      704.370      1.0        1
     210.490      705.327      1.0        1
     269.078      706.282      1.0        1
     327.600      707.237      1.0        1
      26.057      708.190      1.0        1
      84.447      709.143      1.0        1
     142.771      710.095      1.0        1
     201.028      711.046      1.0        1
     259.219      711.996      1.0        1
     317.344      712.945      1.0        1
      15.401      713.893      1.0        1
      73.391      714.840      1.0        1
     131.313      715.786      1.0        1
     189.169      716.731      1.0        1
     246.956      717.676      1.0        1
     304.676      718.619      1.0        1
       2.327      719.561      1.0        1
      59.911      720.503      1.0        1
     117.426      721.443      1.0        1
     174.872      722.383      1.0        1
     232.250      723.321      1.0        1
     289.558      724.259      1.0        1
     346.798      725.195      1.0        1
      43.968      726.131      1.0        1
     101.069      727.065      1.0        1
     158.100      727.999      1.0        1
     215.062      728.931      1.0        1
     271.953      729.863      1.0        1
     328.774      730.793      1.0        1
      25.525      731.723      1.0        1
      82.205      732.651      1.0        1
     138.815      733.579      1.0        1
     195.353      734.505      1.0        1
     251.821      735.430      1.0        1
     308.217      736.355      1.0        1
       4.542      737.278      1.0        1
      60.795      738.200      1.0        1
     116.977      739.122      1.0        1
     173.086      740.042      1.0        1
     229.124      740.961      1.0        1
     285.089      741.879      1.0        1
     340.981      742.796      1.0        1
      36.801      743.712      1.0        1
      92.548      744.627      1.0        1
     148.222      745.541      1.0        1
     203.823      746.453      1.0        1
     259.350      747.365      1.0        1
     314.804      748.275      1.0        1
      10.184      749.185      1.0        1
      65.490      750.093      1.0        1
     120.721      751.000      1.0        1
     175.879      751.907      1.0        1
     230.962      752.812      1.0        1
     285.970      753.716      1.0        1
     340.904      754.618      1.0        1
      35.763      755.520      1.0        1
      90.546      756.421      1.0        1
     145.254      757.320      1.0        1
     199.886      758.218      1.0        1
     254.443      759.115      1.0        1
     308.924      760.011      1.0        1
       3.329      760.906      1.0        1
      57.657      761.800      1.0        1
     111.909      762.693      1.0        1
     166.084      763.584      1.0        1
     220.183      764.474      1.0        1
     274.204      765.363      1.0        1
     328.149      766.251      1.0        1
      22.016      767.138      1.0        1
      75.805      768.024      1.0        1
     129.517      768.908      1.0        1
     183.151      769.791      1.0        1
     236.707      770.673      1.0        1
     290.184      771.554      1.0        1
     343.584      772.434      1.0        1
      36.904      773.312      1.0        1
      90.146      774.190      1.0        1
     143.309      775.066      1.0        1
     196.393      775.941      1.0        1
     249.397      776.814      1.0        1
     302.322      777.687      1.0        1
     355.167      778.558      1.0        1
      47.933      779.428      1.0        1
     100.618      780.297      1.0        1
     153.223      781.164      1.0        1
     205.748      782.030      1.0        1
     258.192      782.895      1.0        1
     310.556      783.759      1.0        1
       2.839      784.622      1.0        1
      55.040      785.483      1.0        1
     107.160      786.343      1.0        1
     159.199      787.202      1.0        1
     211.156      788.059      1.0        1
     263.032      788.916      1.0        1
     314.825      789.771      1.0        1
       6.536      790.624      1.0        1
      58.165      791.477      1.0        1
     109.711      792.328      1.0        1
     161.175      793.178      1.0        1
     212.556      794.026      1.0        1
     263.854      794.874      1.0        1
     315.068      795.720      1.0        1
       6.199      796.564      1.0        1
      57.247      797.408      1.0        1
     108.211      798.250      1.0        1
     159.090      799.090      1.0        1
     209.886      799.930      1.0        1
     260.598      800.768      1.0        1
     311.225      801.605      1.0        1
       1.767      802.440      1.0        1
      52.225      803.274      1.0        1
     102.597      804.107      1.0        1
     152.885      804.939      1.0        1
     203.087      805.769      1.0        1
     253.203      806.598      1.0        1
     303.234      807.425      1.0        1
     353.179      808.251      1.0        1
      43.038      809.076      1.0        1
      92.811      809.899      1.0        1
     142.497      810.721      1.0        1
     192.097      811.542      1.0        1
     241.610      812.361      1.0        1
     291.036      813.179      1.0        1
     340.375      813.996      1.0        1
      29.626      814.811      1.0        1
      78.791      815.625      1.0        1
     127.867      816.437      1.0        1
     176.856      817.248      1.0        1
     225.757      818.058      1.0        1
     274.570      818.866      1.0        1
     323.294      819.673      1.0        1
      11.930      820.478      1.0        1
      60.477      821.282      1.0        1
     108.936      822.084      1.0        1
     157.305      822.886      1.0        1
     205.585      823.685      1.0        1
     253.776      824.484      1.0        1
     301.878      825.281      1.0        1
     349.889      826.076      1.0        1
      37.811      826.870      1.0        1
      85.643      827.663      1.0        1
     133.384      828.454      1.0        1
     181.035      829.243      1.0        1
     228.596      830.032      1.0        1
     276.065      830.818      1.0        1
     323.444      831.604      1.0        1
      10.732      832.388      1.0        1
      57.929      833.170      1.0        1
     105.034      833.951      1.0        1
     152.047      834.731      1.0        1
     198.969      835.509      1.0        1
     245.799      836.285      1.0        1
     292.536      837.060      1.0        1
     339.182      837.834      1.0        1
      25.735      838.606      1.0        1
      72.195      839.377      1.0        1
     118.563      840.146      1.0        1
     164.837      840.913      1.0        1
     211.019      841.679      1.0        1
     257.107      842.444      1.0        1
     303.101      843.207      1.0        1
     349.002      843.969      1.0        1
      34.810      844.729      1.0        1
      80.523      845.487      1.0        1
     126.142      846.245      1.0        1
     171.667      847.000      1.0        1
     217.097      847.754      1.0        1
     262.433      848.507      1.0        1
     307.674      849.258      1.0        1
     352.819      850.007      1.0        1
      37.870      850.755      1.0        1
      82.826      851.501      1.0        1
     127.685      852.246      1.0        1
     172.450      852.989      1.0        1
     217.118      853.731      1.0        1
     261.690      854.471      1.0        1
     306.167      855.210      1.0        1
     350.547      855.947      1.0        1
      34.830      856.682      1.0        1
      79.017      857.416      1.0        1
     123.107      858.148      1.0        1
     167.100      858.879      1.0        1
     210.996      859.608      1.0        1
     254.794      860.336      1.0        1
     298.495      861.062      1.0        1
     342.099      861.786      1.0        1
      25.604      862.509      1.0        1
      69.012      863.230      1.0        1
     112.322      863.950      1.0        1
     155.533      864.668      1.0        1
     198.645      865.385      1.0        1
     241.660      866.099      1.0        1
     284.575      866.813      1.0        1
     327.391      867.524      1.0        1
      10.109      868.234      1.0        1
      52.727      868.943      1.0        1
      95.245      869.649      1.0        1
     137.664      870.355      1.0        1
     179.983      871.058      1.0        1
     222.203      871.760      1.0        1
     264.322      872.460      1.0        1
     306.341      873.159      1.0        1
     348.259      873.856      1.0        1
      30.077      874.551      1.0        1
      71.795      875.245      1.0        1
     113.411      875.937      1.0        1
     154.926      876.627      1.0        1
     196.341      877.316      1.0        1
     237.653      878.003      1.0        1
     278.865      878.688      1.0        1
     319.974      879.372      1.0        1
       0.982      880.054      1.0        1
      41.888      880.735      1.0        1
      82.692      881.413      1.0        1
     123.393      882.090      1.0        1
     163.992      882.766      1.0        1
     204.488      883.439      1.0        1
     244.881      884.111      1.0        1
     285.172      884.782      1.0        1
     325.359      885.450      1.0        1
       5.444      886.117      1.0        1
      45.424      886.782      1.0        1
      85.302      887.446      1.0        1
     125.075      888.108      1.0        1
     164.745      888.768      1.0        1
     204.311      889.426      1.0        1
     243.772      890.083      1.0        1
     283.129      890.738      1.0        1
     322.382      891.391      1.0        1
       1.530      892.043      1.0        1
      40.573      892.693      1.0        1
      79.511      893.341      1.0        1
     118.345      893.987      1.0        1
     157.073      894.632      1.0        1
     195.695      895.275      1.0        1
     234.212      895.916      1.0        1
     272.624      896.555      1.0        1
     310.929      897.193      1.0        1
     349.128      897.829      1.0        1
      27.222      898.463      1.0        1
      65.209      899.096      1.0        1
     103.089      899.726      1.0        1
     140.863      900.355      1.0        1
     178.531      900.982      1.0        1
     216.091      901.608      1.0        1
     253.544      902.231      1.0        1
     290.890      902.853      1.0        1
     328.129      903.473      1.0        1
       5.261      904.092      1.0        1
      42.284      904.708      1.0        1
      79.200      905.323      1.0        1
     116.008      905.936      1.0        1
     152.708      906.547      1.0        1
     189.300      907.157      1.0        1
     225.783      907.764      1.0        1
     262.158      908.370      1.0        1
     298.424      908.974      1.0        1
     334.581      909.577      1.0        1
      10.630      910.177      1.0        1
      46.569      910.776      1.0        1
      82.399      911.372      1.0        1
     118.120      911.968      1.0        1
     153.731      912.561      1.0        1
     189.232      913.152      1.0        1
     224.624      913.742      1.0        1
     259.906      914.330      1.0        1
     295.078      914.915      1.0        1
     330.139      915.500      1.0        1
       5.090      916.082      1.0        1
      39.931      916.662      1.0        1
      74.661      917.241      1.0        1
     109.280      917.818      1.0        1
     143.789      918.393      1.0        1
     178.186      918.966      1.0        1
     212.472      919.537      1.0        1
     246.646      920.107      1.0        1
     280.710      920.674      1.0        1
     314.661      921.240      1.0        1
     348.501      921.804      1.0        1
      22.229      922.366      1.0        1
      55.845      922.926      1.0        1
      89.349      923.485      1.0        1
     122.740      924.041      1.0        1
     156.019      924.596      1.0        1
     189.186      925.149      1.0        1
     222.240      925.699      1.0        1
     255.181      926.248      1.0        1
     288.009      926.796      1.0        1
     320.723      927.341      1.0        1
     353.325      927.884      1.0        1
      25.813      928.426      1.0        1
      58.188      928.965      1.0        1
      90.449      929.503      1.0        1
     122.597      930.039      1.0        1
     154.630      930.573      1.0        1
     186.550      931.105      1.0        1
     218.355      931.635      1.0        1
     250.046      932.164      1.0        1
     281.623      932.690      1.0        1
     313.085      933.214      1.0        1
     344.432      933.737      1.0        1
      15.665      934.258      1.0        1
      46.782      934.776      1.0        1
      77.785      935.293      1.0        1
     108.673      935.808      1.0        1
     139.445      936.321      1.0        1
     170.101      936.832      1.0        1
     200.643      937.342      1.0        1
     231.068      937.849      1.0        1
     261.378      938.354      1.0        1
     291.571      938.858      1.0        1
     321.649      939.359      1.0        1
     351.610      939.859      1.0        1
      21.456      940.356      1.0        1
      51.184      940.852      1.0        1
      80.797      941.346      1.0        1
     110.292      941.838      1.0        1
     139.671      942.327      1.0        1
     168.933      942.815      1.0        1
     198.077      943.301      1.0        1
     227.105      943.785      1.0        1
     256.015      944.267      1.0        1
     284.808      944.748      1.0        1
     313.483      945.226      1.0        1
     342.041      945.702      1.0        1
      10.481      946.176      1.0        1
      38.803      946.649      1.0        1
      67.007      947.119      1.0        1
      95.093      947.587      1.0        1
     123.061      948.054      1.0        1
     150.911      948.518      1.0        1
     178.642      948.981      1.0        1
     206.254      949.441      1.0        1
     233.748      949.900      1.0        1
     261.123      950.356      1.0        1
     288.379      950.811      1.0        1
     315.516      951.263      1.0        1
     342.533      951.714      1.0        1
       9.432      952.163      1.0        1
      36.211      952.609      1.0        1
      62.871      953.054      1.0        1
      89.411      953.496      1.0        1
     115.831      953.937      1.0        1
     142.132      954.376      1.0        1
     168.313      954.812      1.0        1
     194.373      955.247      1.0        1
     220.314      955.680      1.0        1
     246.134      956.111      1.0        1
     271.834      956.539      1.0        1
     297.413      956.966      1.0        1
     322.872      957.390      1.0        1
     348.210      957.813      1.0        1
      13.428      958.234      1.0        1
      38.524      958.652      1.0        1
      63.500      959.069      1.0        1
      88.354      959.484      1.0        1
     113.087      959.896      1.0        1
     137.699      960.307      1.0        1
     162.189      960.715      1.0        1
     186.558      961.122      1.0        1
     210.806      961.526      1.0        1
     234.931      961.929      1.0        1
     258.935      962.329      1.0        1
     282.817      962.727      1.0        1
     306.576      963.124      1.0        1
     330.214      963.518      1.0        1
     353.729      963.910      1.0        1
      17.122      964.301      1.0        1
      40.393      964.689      1.0        1
      63.541      965.075      1.0        1
      86.567      965.459      1.0        1
     109.469      965.841      1.0        1
     132.249      966.221      1.0        1
     154.906      966.599      1.0        1
     177.440      966.975      1.0        1
     199.851      967.349      1.0        1
     222.139      967.721      1.0        1
     244.303      968.090      1.0        1
     266.344      968.458      1.0        1
     288.262      968.824      1.0        1
     310.056      969.187      1.0        1
     331.726      969.549      1.0        1
     353.273      969.908      1.0        1
      14.695      970.266      1.0        1
      35.994      970.621      1.0        1
      57.169      970.974      1.0        1
      78.219      971.326      1.0        1
      99.145      971.675      1.0        1
     119.947      972.022      1.0        1
     140.625      972.367      1.0        1
     161.178      972.710      1.0        1
     181.607      973.050      1.0        1
     201.911      973.389      1.0        1
     222.090      973.726      1.0        1
     242.144      974.060      1.0        1
     262.073      974.393      1.0        1
     281.878      974.723      1.0        1
     301.557      975.052      1.0        1
     321.111      975.378      1.0        1
     340.540      975.702      1.0        1
     359.844      976.024      1.0        1
      19.022      976.344      1.0        1
      38.075      976.662      1.0        1
      57.002      976.978      1.0        1
      75.803      977.291      1.0        1
      94.479      977.603      1.0        1
     113.028      977.913      1.0        1
     131.452      978.220      1.0        1
     149.750      978.525      1.0        1
     167.922      978.828      1.0        1
     185.968      979.130      1.0        1
     203.887      979.429      1.0        1
     221.680      979.725      1.0        1
     239.347      980.020      1.0        1
     256.887      980.313      1.0        1
     274.301      980.603      1.0        1
     291.589      980.892      1.0        1
     308.749      981.178      1.0        1
     325.783      981.462      1.0        1
     342.690      981.744      1.0        1
     359.470      982.024      1.0        1
      16.123      982.302      1.0        1
      32.649      982.578      1.0        1
      49.048      982.852      1.0        1
      65.320      983.123      1.0        1
      81.465      983.393      1.0        1
      97.482      983.660      1.0        1
     113.372      983.925      1.0        1
     129.134      984.188      1.0        1
     144.769      984.449      1.0        1
     160.276      984.708      1.0        1
     175.656      984.964      1.0        1
     190.908      985.219      1.0        1
     206.032      985.471      1.0        1
     221.028      985.721      1.0        1
     235.896      985.969      1.0        1
     250.637      986.215      1.0        1
     265.249      986.459      1.0        1
     279.733      986.701      1.0        1
     294.089      986.940      1.0        1
     308.317      987.178      1.0        1
     322.416      987.413      1.0        1
     336.387      987.646      1.0        1
     350.230      987.877      1.0        1
       3.944      988.106      1.0        1
      17.530      988.333      1.0        1
      30.987      988.557      1.0        1
      44.315      988.779      1.0        1
      57.515      989.000      1.0        1
      70.585      989.218      1.0        1
      83.527      989.434      1.0        1
      96.341      989.648      1.0        1
     109.025      989.859      1.0        1
     121.580      990.069      1.0        1
     134.006      990.276      1.0        1
     146.303      990.481      1.0        1
     158.471      990.684      1.0        1
     170.510      990.885      1.0        1
     182.419      991.084      1.0        1
     194.199      991.280      1.0        1
     205.850      991.475      1.0        1
     217.371      991.667      1.0        1
     228.763      991.857      1.0        1
     240.025      992.045      1.0        1
     251.158      992.231      1.0        1
     262.161      992.414      1.0        1
     273.035      992.596      1.0        1
     283.778      992.775      1.0        1
     294.392      992.952      1.0        1
     304.877      993.127      1.0        1
     315.231      993.300      1.0        1
     325.455      993.471      1.0        1
     335.550      993.639      1.0        1
     345.514      993.805      1.0        1
     355.349      993.969      1.0        1
       5.053      994.131      1.0        1
      14.628      994.291      1.0        1
      24.072      994.449      1.0        1
      33.386      994.604      1.0        1
      42.569      994.757      1.0        1
      51.623      994.908      1.0        1
      60.546      995.057      1.0        1
      69.339      995.204      1.0        1
      78.001      995.349      1.0        1
      86.533      995.491      1.0        1
      94.935      995.631      1.0        1
     103.206      995.769      1.0        1
     111.346      995.905      1.0        1
     119.356      996.039      1.0        1
     127.235      996.170      1.0        1
     134.984      996.299      1.0        1
     142.601      996.426      1.0        1
     150.089      996.551      1.0        1
     157.445      996.674      1.0        1
     164.671      996.795      1.0        1
     171.766      996.913      1.0        1
     178.730      997.029      1.0        1
     185.563      997.143      1.0        1
     192.265      997.255      1.0        1
     198.836      997.365      1.0        1
     205.277      997.472      1.0        1
     211.586      997.578      1.0        1
     217.764      997.681      1.0        1
     223.812      997.782      1.0        1
     229.728      997.880      1.0        1
     235.513      997.977      1.0        1
     241.167      998.071      1.0        1
     246.690      998.163      1.0        1
     252.082      998.253      1.0        1
     257.342      998.341      1.0        1
     262.471      998.427      1.0        1
     267.469      998.510      1.0        1
     272.336      998.591      1.0        1
     277.072      998.670      1.0        1
     281.676      998.747      1.0        1
     286.149      998.822      1.0        1
     290.490      998.894      1.0        1
     294.701      998.964      1.0        1
     298.779      999.032      1.0        1
     302.727      999.098      1.0        1
     306.543      999.162      1.0        1
     310.227      999.224      1.0        1
     313.780      999.283      1.0        1
     317.202      999.340      1.0        1
     320.492      999.395      1.0        1
     323.651      999.447      1.0        1
     326.678      999.498      1.0        1
     329.574      999.546      1.0        1
     332.338      999.592      1.0        1
     334.970      999.636      1.0        1
     337.471      999.678      1.0        1
     339.841      999.718      1.0        1
     342.079      999.755      1.0        1
     344.185      999.790      1.0        1
     346.160      999.823      1.0        1
     348.003      999.854      1.0        1
     349.714      999.882      1.0        1
     351.294      999.909      1.0        1
     352.742      999.933      1.0        1
     354.059      999.955      1.0        1
     355.244      999.975      1.0        1
     356.297      999.992      1.0        1
     357.219     1000.008      1.0        1
     358.009     1000.021      1.0        1
     358.667     1000.032      1.0        1
     359.194     1000.041      1.0        1
     359.589     1000.047      1.0        1
     359.852     1000.052      1.0        1
     359.984     1000.054      2.0        1
     359.852     1000.052      1.0        1
     359.589     1000.047      1.0        1
     359.194     1000.041      1.0        1
     358.667     1000.032      1.0        1
     358.009     1000.021      1.0        1
     357.219     1000.008      1.0        1
     356.297      999.992      1.0        1
     355.244      999.975      1.0        1
     354.059      999.955      1.0        1
     352.742      999.933      1.0        1
     351.294      999.909      1.0        1
     349.714      999.882      1.0        1
     348.003      999.854      1.0        1
     346.160      999.823      1.0        1
     344.185      999.790      1.0        1
     342.079      999.755      1.0        1
     339.841      999.718      1.0        1
     337.471      999.678      1.0        1
     334.970      999.636      1.0        1
     332.338      999.592      1.0        1
     329.574      999.546      1.0        1
     326.678      999.498      1.0        1
     323.651      999.447      1.0        1
     320.492      999.395      1.0        1
     317.202      999.340      1.0        1
     313.780      999.283      1.0        1
     310.227      999.224      1.0        1
     306.543      999.162      1.0        1
     302.727      999.098      1.0        1
     298.779      999.032      1.0        1
     294.701      998.964      1.0        1
     290.490      998.894      1.0        1
     286.149      998.822      1.0        1
     281.676      998.747      1.0        1
     277.072      998.670      1.0        1
     272.336      998.591      1.0        1
     267.469      998.510      1.0        1
     262.471      998.427      1.0        1
     257.342      998.341      1.0        1
     252.082      998.253      1.0        1
     246.690      998.163      1.0        1
     241.167      998.071      1.0        1
     235.513      997.977      1.0        1
     229.728      997.880      1.0        1
     223.812      997.782      1.0        1
     217.764      997.681      1.0        1
     211.586      997.578      1.0        1
     205.277      997.472      1.0        1
     198.836      997.365      1.0        1
     192.265      997.255      1.0        1
     185.563      997.143      1.0        1
     178.730      997.029      1.0        1
     171.766      996.913      1.0        1
     164.671      996.795      1.0        1
     157.445      996.674      1.0        1
     150.089      996.551      1.0        1
     142.601      996.426      1.0        1
     134.984      996.299      1.0        1
     127.235      996.170      1.0        1
     119.356      996.039      1.0        1
     111.346      995.905      1.0        1
     103.206      995.769      1.0        1
      94.935      995.631      1.0        1
      86.533      995.491      1.0        1
      78.001      995.349      1.0        1
      69.339      995.204      1.0        1
      60.546      995.057      1.0        1
      51.623      994.908      1.0        1
      42.569      994.757      1.0        1
      33.386      994.604      1.0        1
      24.072      994.449      1.0        1
      14.628      994.291      1.0        1
       5.053      994.131      1.0        1
     355.349      993.969      1.0        1
     345.514      993.805      1.0        1
     335.550      993.639      1.0        1
     325.455      993.471      1.0        1
     315.231      993.300      1.0        1
     304.877      993.127      1.0        1
     294.392      992.952      1.0        1
     283.778      992.775      1.0        1
     273.035      992.596      1.0        1
     262.161      992.414      1.0        1
     251.158      992.231      1.0        1
     240.025      992.045      1.0        1
     228.763      991.857      1.0        1
     217.371      991.667      1.0        1
     205.850      991.475      1.0        1
     194.199      991.280      1.0        1
     182.419      991.084      1.0        1
     170.510      990.885      1.0        1
     158.471      990.684      1.0        1
     146.303      990.481      1.0        1
     134.006      990.276      1.0        1
     121.580      990.069      1.0        1
     109.025      989.859      1.0        1
      96.341      989.648      1.0        1
      83.527      989.434      1.0        1
      70.585      989.218      1.0        1
      57.515      989.000      1.0        1
      44.315      988.779      1.0        1
      30.987      988.557      1.0        1
      17.530      988.333      1.0        1
       3.944      988.106      1.0        1
     350.230      987.877      1.0        1
     336.387      987.646      1.0        1
     322.416      987.413      1.0        1
     308.317      987.178      1.0        1
     294.089      986.940      1.0        1
     279.733      986.701      1.0        1
     265.249      986.459      1.0        1
     250.637      986.215      1.0        1
     235.896      985.969      1.0        1
     221.028      985.721      1.0        1
     206.032      985.471      1.0        1
     190.908      985.219      1.0        1
     175.656      984.964      1.0        1
     160.276      984.708      1.0        1
     144.769      984.449      1.0        1
     129.134      984.188      1.0        1
     113.372      983.925      1.0        1
      97.482      983.660      1.0        1
      81.465      983.393      1.0        1
      65.320      983.123      1.0        1
      49.048      982.852      1.0        1
      32.649      982.578      1.0        1
      16.123      982.302      1.0        1
     359.470      982.024      1.0        1
     342.690      981.744      1.0        1
     325.783      981.462      1.0        1
     308.749      981.178      1.0        1
     291.589      980.892      1.0        1
     274.301      980.603      1.0        1
     256.887      980.313      1.0        1
     239.347      980.020      1.0        1
     221.680      979.725      1.0        1
     203.887      979.429      1.0        1
     185.968      979.130      1.0        1
     167.922      978.828      1.0        1
     149.750      978.525      1.0        1
     131.452      978.220      1.0        1
     113.028      977.913      1.0        1
      94.479      977.603      1.0        1
      75.803      977.291      1.0        1
      57.002      976.978      1.0        1
      38.075      976.662      1.0        1
      19.022      976.344      1.0        1
     359.844      976.024      1.0        1
     340.540      975.702      1.0        1
     321.111      975.378      1.0        1
     301.557      975.052      1.0        1
     281.878      974.723      1.0        1
     262.073      974.393      1.0        1
     242.144      974.060      1.0        1
     222.090      973.726      1.0        1
     201.911      973.389      1.0        1
     181.607      973.050      1.0        1
     161.178      972.710      1.0        1
     140.625      972.367      1.0        1
     119.947      972.022      1.0        1
      99.145      971.675      1.0        1
      78.219      971.326      1.0        1
      57.169      970.974      1.0        1
      35.994      970.621      1.0        1
      14.695      970.266      1.0        1
     353.273      969.908      1.0        1
     331.726      969.549      1.0        1
     310.056      969.187      1.0        1
     288.262      968.824      1.0        1
     266.344      968.458      1.0        1
     244.303      968.090      1.0        1
     222.139      967.721      1.0        1
     199.851      967.349      1.0        1
     177.440      966.975      1.0        1
     154.906      966.599      1.0        1
     132.249      966.221      1.0        1
     109.469      965.841      1.0        1
      86.567      965.459      1.0        1
      63.541      965.075      1.0        1
      40.393      964.689      1.0        1
      17.122      964.301      1.0        1
     353.729      963.910      1.0        1
     330.214      963.518      1.0        1
     306.576      963.124      1.0        1
     282.817      962.727      1.0        1
     258.935      962.329      1.0        1
     234.931      961.929      1.0        1
     210.806      961.526      1.0        1
     186.558      961.122      1.0        1
     162.189      960.715      1.0        1
     137.699      960.307      1.0        1
     113.087      959.896      1.0        1
      88.354      959.484      1.0        1
      63.500      959.069      1.0        1
      38.524      958.652      1.0        1
      13.428      958.234      1.0        1
     348.210      957.813      1.0        1
     322.872      957.390      1.0        1
     297.413      956.966      1.0        1
     271.834      956.539      1.0        1
     246.134      956.111      1.0        1
     220.314      955.680      1.0        1
     194.373      955.247      1.0        1
     168.313      954.812      1.0        1
     142.132      954.376      1.0        1
     115.831      953.937      1.0        1
      89.411      953.496      1.0        1
      62.871      953.054      1.0        1
      36.211      952.609      1.0        1
       9.432      952.163      1.0        1
     342.533      951.714      1.0        1
     315.516      951.263      1.0        1
     288.379      950.811      1.0        1
     261.123      950.356      1.0        1
     233.748      949.900      1.0        1
     206.254      949.441      1.0        1
     178.642      948.981      1.0        1
     150.911      948.518      1.0        1
     123.061      948.054      1.0        1
      95.093      947.587      1.0        1
      67.007      947.119      1.0        1
      38.803      946.649      1.0        1
      10.481      946.176      1.0        1
     342.041      945.702      1.0        1
     313.483      945.226      1.0        1
     284.808      944.748      1.0        1
     256.015      944.267      1.0        1
     227.105      943.785      1.0        1
     198.077      943.301      1.0        1
     168.933      942.815      1.0        1
     139.671      942.327      1.0        1
     110.292      941.838      1.0        1
      80.797      941.346      1.0        1
      51.184      940.852      1.0        1
      21.456      940.356      1.0        1
     351.610      939.859      1.0        1
     321.649      939.359      1.0        1
     291.571      938.858      1.0        1
     261.378      938.354      1.0        1
     231.068      937.849      1.0        1
     200.643      937.342      1.0        1
     170.101      936.832      1.0        1
     139.445      936.321      1.0        1
     108.673      935.808      1.0        1
      77.785      935.293      1.0        1
      46.782      934.776      1.0        1
      15.665      934.258      1.0        1
     344.432      933.737      1.0        1
     313.085      933.214      1.0        1
     281.623      932.690      1.0        1
     250.046      932.164      1.0        1
     218.355      931.635      1.0        1
     186.550      931.105      1.0        1
     154.630      930.573      1.0        1
     122.597      930.039      1.0        1
      90.449      929.503      1.0        1
      58.188      928.965      1.0        1
      25.813      928.426      1.0        1
     353.325      927.884      1.0        1
     320.723      927.341      1.0        1
     288.009      926.796      1.0        1
     255.181      926.248      1.0        1
     222.240      925.699      1.0        1
     189.186      925.149      1.0        1
     156.019      924.596      1.0        1
     122.740      924.041      1.0        1
      89.349      923.485      1.0        1
      55.845      922.926      1.0        1
      22.229      922.366      1.0        1
     348.501      921.804      1.0        1
     314.661      921.240      1.0        1
     280.710      920.674      1.0        1
     246.646      920.107      1.0        1
     212.472      919.537      1.0        1
     178.186      918.966      1.0        1
     143.789      918.393      1.0        1
     109.280      917.818      1.0        1
      74.661      917.241      1.0        1
      39.931      916.662      1.0        1
       5.090      916.082      1.0        1
     330.139      915.500      1.0        1
     295.078      914.915      1.0        1
     259.906      914.330      1.0        1
     224.624      913.742      1.0        1
     189.232      913.152      1.0        1
     153.731      912.561      1.0        1
     118.120      911.968      1.0        1
      82.399      911.372      1.0        1
      46.569      910.776      1.0        1
      10.630      910.177      1.0        1
     334.581      909.577      1.0        1
     298.424      908.974      1.0        1
     262.158      908.370      1.0        1
     225.783      907.764      1.0        1
     189.300      907.157      1.0        1
     152.708      906.547      1.0        1
     116.008      905.936      1.0        1
      79.200      905.323      1.0        1
      42.284      904.708      1.0        1
       5.261      904.092      1.0        1
     328.129      903.473      1.0        1
     290.890      902.853      1.0        1
     253.544      902.231      1.0        1
     216.091      901.608      1.0        1
     178.531      900.982      1.0        1
     140.863      900.355      1.0        1
     103.089      899.726      1.0        1
      65.209      899.096      1.0        1
      27.222      898.463      1.0        1
     349.128      897.829      1.0        1
     310.929      897.193      1.0        1
     272.624      896.555      1.0        1
     234.212      895.916      1.0        1
     195.695      895.275      1.0        1
     157.073      894.632      1.0        1
     118.345      893.987      1.0        1
      79.511      893.341      1.0        1
      40.573      892.693      1.0        1
       1.530      892.043      1.0        1
     322.382      891.391      1.0        1
     283.129      890.738      1.0        1
     243.772      890.083      1.0        1
     204.311      889.426      1.0        1
     164.745      888.768      1.0        1
     125.075      888.108      1.0        1
      85.302      887.446      1.0        1
      45.424      886.782      1.0        1
       5.444      886.117      1.0        1
     325.359      885.450      1.0        1
     285.172      884.782      1.0        1
     244.881      884.111      1.0        1
     204.488      883.439      1.0        1
     163.992      882.766      1.0        1
     123.393      882.090      1.0        1
      82.692      881.413      1.0        1
      41.888      880.735      1.0        1
       0.982      880.054      1.0        1
     319.974      879.372      1.0        1
     278.865      878.688      1.0        1
     237.653      878.003      1.0        1
     196.341      877.316      1.0        1
     154.926      876.627      1.0        1
     113.411      875.937      1.0        1
      71.795      875.245      1.0        1
      30.077      874.551      1.0        1
     348.259      873.856      1.0        1
     306.341      873.159      1.0        1
     264.322      872.460      1.0        1
     222.203      871.760      1.0        1
     179.983      871.058      1.0        1
     137.664      870.355      1.0        1
      95.245      869.649      1.0        1
      52.727      868.943      1.0        1
      10.109      868.234      1.0        1
     327.391      867.524      1.0        1
     284.575      866.813      1.0        1
     241.660      866.099      1.0        1
     198.645      865.385      1.0        1
     155.533      864.668      1.0        1
     112.322      863.950      1.0        1
      69.012      863.230      1.0        1
      25.604      862.509      1.0        1
     342.099      861.786      1.0        1
     298.495      861.062      1.0        1
     254.794      860.336      1.0        1
     210.996      859.608      1.0        1
     167.100      858.879      1.0        1
     123.107      858.148      1.0        1
      79.017      857.416      1.0        1
      34.830      856.682      1.0        1
     350.547      855.947      1.0        1
     306.167      855.210      1.0        1
     261.690      854.471      1.0        1
     217.118      853.731      1.0        1
     172.450      852.989      1.0        1
     127.685      852.246      1.0        1
      82.826      851.501      1.0        1
      37.870      850.755      1.0        1
     352.819      850.007      1.0        1
     307.674      849.258      1.0        1
     262.433      848.507      1.0        1
     217.097      847.754      1.0        1
     171.667      847.000      1.0        1
     126.142      846.245      1.0        1
      80.523      845.487      1.0        1
      34.810      844.729      1.0        1
     349.002      843.969      1.0        1
     303.101      843.207      1.0        1
     257.107      842.444      1.0        1
     211.019      841.679      1.0        1
     164.837      840.913      1.0        1
     118.563      840.146      1.0        1
      72.195      839.377      1.0        1
      25.735      838.606      1.0        1
     339.182      837.834      1.0        1
     292.536      837.060      1.0        1
     245.799      836.285      1.0        1
     198.969      835.509      1.0        1
     152.047      834.731      1.0        1
     105.034      833.951      1.0        1
      57.929      833.170      1.0        1
      10.732      832.388      1.0        1
     323.444      831.604      1.0        1
     276.065      830.818      1.0        1
     228.596      830.032      1.0        1
     181.035      829.243      1.0        1
     133.384      828.454      1.0        1
      85.643      827.663      1.0        1
      37.811      826.870      1.0        1
     349.889      826.076      1.0        1
     301.878      825.281      1.0        1
     253.776      824.484      1.0        1
     205.585      823.685      1.0        1
     157.305      822.886      1.0        1
     108.936      822.084      1.0        1
      60.477      821.282      1.0        1
      11.930      820.478      1.0        1
     323.294      819.673      1.0        1
     274.570      818.866      1.0        1
     225.757      818.058      1.0        1
     176.856      817.248      1.0        1
     127.867      816.437      1.0        1
      78.791      815.625      1.0        1
      29.626      814.811      1.0        1
     340.375      813.996      1.0        1
     291.036      813.179      1.0        1
     241.610      812.361      1.0        1
     192.097      811.542      1.0        1
     142.497      810.721      1.0        1
      92.811      809.899      1.0        1
      43.038      809.076      1.0        1
     353.179      808.251      1.0        1
     303.234      807.425      1.0        1
     253.203      806.598      1.0        1
     203.087      805.769      1.0        1
     152.885      804.939      1.0        1
     102.597      804.107      1.0        1
      52.225      803.274      1.0        1
       1.767      802.440      1.0        1
     311.225      801.605      1.0        1
     260.598      800.768      1.0        1
     209.886      799.930      1.0        1
     159.090      799.090      1.0        1
     108.211      798.250      1.0        1
      57.247      797.408      1.0        1
       6.199      796.564      1.0        1
     315.068      795.720      1.0        1
     263.854      794.874      1.0        1
     212.556      794.026      1.0        1
     161.175      793.178      1.0        1
     109.711      792.328      1.0        1
      58.165      791.477      1.0        1
       6.536      790.624      1.0        1
     314.825      789.771      1.0        1
     263.032      788.916      1.0        1
     211.156      788.059      1.0        1
     159.199      787.202      1.0        1
     107.160      786.343      1.0        1
      55.040      785.483      1.0        1
       2.839      784.622      1.0        1
     310.556      783.759      1.0        1
     258.192      782.895      1.0        1
     205.748      782.030      1.0        1
     153.223      781.164      1.0        1
     100.618      780.297      1.0        1
      47.933      779.428      1.0        1
     355.167      778.558      1.0        1
     302.322      777.687      1.0        1
     249.397      776.814      1.0        1
     196.393      775.941      1.0        1
     143.309      775.066      1.0        1
      90.146      774.190      1.0        1
      36.904      773.312      1.0        1
     343.584      772.434      1.0        1
     290.184      771.554      1.0        1
     236.707      770.673      1.0        1
     183.151      769.791      1.0        1
     129.517      768.908      1.0        1
      75.805      768.024      1.0        1
      22.016      767.138      1.0        1
     328.149      766.251      1.0        1
     274.204      765.363      1.0        1
     220.183      764.474      1.0        1
     166.084      763.584      1.0        1
     111.909      762.693      1.0        1
      57.657      761.800      1.0        1
       3.329      760.906      1.0        1
     308.924      760.011      1.0        1
     254.443      759.115      1.0        1
     199.886      758.218      1.0        1
     145.254      757.320      1.0        1
      90.546      756.421      1.0        1
      35.763      755.520      1.0        1
     340.904      754.618      1.0        1
     285.970      753.716      1.0        1
     230.962      752.812      1.0        1
     175.879      751.907      1.0        1
     120.721      751.000      1.0        1
      65.490      750.093      1.0        1
      10.184      749.185      1.0        1
     314.804      748.275      1.0        1
     259.350      747.365      1.0        1
     203.823      746.453      1.0        1
     148.222      745.541      1.0        1
      92.548      744.627      1.0        1
      36.801      743.712      1.0        1
     340.981      742.796      1.0        1
     285.089      741.879      1.0        1
     229.124      740.961      1.0        1
     173.086      740.042      1.0        1
     116.977      739.122      1.0        1
      60.795      738.200      1.0        1
       4.542      737.278      1.0        1
     308.217      736.355      1.0        1
     251.821      735.430      1.0        1
     195.353      734.505      1.0        1
     138.815      733.579      1.0        1
      82.205      732.651      1.0        1
      25.525      731.723      1.0        1
     328.774      730.793      1.0        1
     271.953      729.863      1.0        1
     215.062      728.931      1.0        1
     158.100      727.999      1.0        1
     101.069      727.065      1.0        1
      43.968      726.131      1.0        1
     346.798      725.195      1.0        1
     289.558      724.259      1.0        1
     232.250      723.321      1.0        1
     174.872      722.383      1.0        1
     117.426      721.443      1.0        1
      59.911      720.503      1.0        1
       2.327      719.561      1.0        1
     304.676      718.619      1.0        1
     246.956      717.676      1.0        1
     189.169      716.731      1.0        1
     131.313      715.786      1.0        1
      73.391      714.840      1.0        1
      15.401      713.893      1.0        1
     317.344      712.945      1.0        1
     259.219      711.996      1.0        1
     201.028      711.046      1.0        1
     142.771      710.095      1.0        1
      84.447      709.143      1.0        1
      26.057      708.190      1.0        1
     327.600      707.237      1.0        1
     269.078      706.282      1.0        1
     210.490      705.327      1.0        1
     151.837      704.370      1.0        1
      93.118      703.413      1.0        1
      34.334      702.455      1.0        1
     335.485      701.496      1.0        1
     276.571      700.536      1.0        1
     217.592      699.575      1.0        1
     158.549      698.613      1.0        1
      99.442      697.651      1.0        1
      40.270      696.687      1.0        1
     341.035      695.723      1.0        1
     281.736      694.758      1.0        1
     222.373      693.792      1.0        1
     162.947      692.825      1.0        1
     103.457      691.857      1.0        1
      43.904      690.889      1.0        1
     344.289      689.919      1.0        1
     284.611      688.949      1.0        1
     224.870      687.978      1.0        1
     165.067      687.006      1.0        1
     105.201      686.033      1.0        1
      45.274      685.060      1.0        1
     345.285      684.086      1.0        1
     285.234      683.110      1.0        1
     225.122      682.134      1.0        1
     164.948      681.158      1.0        1
     104.713      680.180      1.0        1
      44.417      679.202      1.0        1
     344.061      678.223      1.0        1
     283.644      677.243      1.0        1
     223.166      676.262      1.0        1
     162.628      675.280      1.0        1
     102.030      674.298      1.0        1
      41.372      673.315      1.0        1
     340.655      672.331      1.0        1
     279.878      671.347      1.0        1
     219.041      670.361      1.0        1
     158.145      669.375      1.0        1
      97.190      668.389      1.0        1
      36.177      667.401      1.0        1
     335.104      666.413      1.0        1
     273.973      665.424      1.0        1
     212.784      664.434      1.0        1
     151.536      663.444      1.0        1
      90.231      662.452      1.0        1
      28.868      661.460      1.0        1
     327.447      660.468      1.0        1
     265.968      659.475      1.0        1
     204.432      658.481      1.0        1
     142.839      657.486      1.0        1
      81.189      656.490      1.0        1
      19.483      655.494      1.0        1
     317.719      654.498      1.0        1
     255.900      653.500      1.0        1
     194.023      652.502      1.0        1
     132.091      651.503      1.0        1
      70.103      650.504      1.0        1
       8.059      649.504      1.0        1
     305.960      648.503      1.0        1
     243.805      647.501      1.0        1
     181.595      646.499      1.0        1
     119.329      645.496      1.0        1
      57.009      644.493      1.0        1
     354.634      643.489      1.0        1
     292.205      642.484      1.0        1
     229.721      641.479      1.0        1
     167.183      640.473      1.0        1
     104.591      639.467      1.0        1
      41.944      638.460      1.0        1
     339.245      637.452      1.0        1
     276.491      636.443      1.0        1
     213.684      635.434      1.0        1
     150.824      634.425      1.0        1
      87.911      633.415      1.0        1
      24.945      632.404      1.0        1
     321.927      631.393      1.0        1
     258.856      630.381      1.0        1
     195.732      629.368      1.0        1
     132.556      628.355      1.0        1
      69.328      627.342      1.0        1
       6.049      626.328      1.0        1
     302.717      625.313      1.0        1
     239.334      624.298      1.0        1
     175.900      623.282      1.0        1
     112.415      622.265      1.0        1
      48.878      621.248      1.0        1
     345.291      620.231      1.0        1
     281.653      619.213      1.0        1
     217.964      618.195      1.0        1
     154.225      617.176      1.0        1
      90.436      616.156      1.0        1
      26.596      615.136      1.0        1
     322.707      614.115      1.0        1
     258.768      613.094      1.0        1
     194.780      612.073      1.0        1
     130.742      611.051      1.0        1
      66.655      610.028      1.0        1
       2.519      609.005      1.0        1
     298.334      607.982      1.0        1
     234.100      606.958      1.0        1
     169.818      605.933      1.0        1
     105.487      604.908      1.0        1
      41.108      603.883      1.0        1
     336.681      602.857      1.0        1
     272.206      601.831      1.0        1
     207.684      600.804      1.0        1
     143.113      599.777      1.0        1
      78.496      598.749      1.0        1
      13.831      597.721      1.0        1
     309.119      596.693      1.0        1
     244.360      595.664      1.0        1
     179.554      594.635      1.0        1
     114.702      593.605      1.0        1
      49.803      592.575      1.0        1
     344.858      591.544      1.0        1
     279.867      590.513      1.0        1
     214.829      589.482      1.0        1
     149.746      588.450      1.0        1
      84.618      587.418      1.0        1
      19.444      586.385      1.0        1
     314.224      585.352      1.0        1
     248.960      584.319      1.0        1
     183.650      583.285      1.0        1
     118.295      582.251      1.0        1
      52.896      581.217      1.0        1
     347.452      580.182      1.0        1
     281.964      579.147      1.0        1
     216.432      578.112      1.0        1
     150.855      577.076      1.0        1
      85.235      576.040      1.0        1
      19.571      575.003      1.0        1
     313.863      573.966      1.0        1
     248.112      572.929      1.0        1
     182.318      571.892      1.0        1
     116.480      570.854      1.0        1
      50.600      569.816      1.0        1
     344.677      568.777      1.0        1
     278.711      567.739      1.0        1
     212.702      566.700      1.0        1
     146.651      565.660      1.0        1
      80.558      564.621      1.0        1
      14.423      563.581      1.0        1
     308.247      562.541      1.0        1
     242.028      561.500      1.0        1
     175.768      560.459      1.0        1
     109.466      559.418      1.0        1
      43.123      558.377      1.0        1
     336.739      557.336      1.0        1
     270.314      556.294      1.0        1
     203.849      555.252      1.0        1
     137.342      554.210      1.0        1
      70.795      553.167      1.0        1
       4.208      552.124      1.0        1
     297.581      551.081      1.0        1
     230.913      550.038      1.0        1
     164.206      548.995      1.0        1
      97.459      547.951      1.0        1
      30.672      546.907      1.0        1
     323.846      545.863      1.0        1
     256.980      544.819      1.0        1
     190.076      543.775      1.0        1
     123.132      542.730      1.0        1
      56.149      541.685      1.0        1
     349.128      540.640      1.0        1
     282.069      539.595      1.0        1
     214.971      538.550      1.0        1
     147.834      537.504      1.0        1
      80.660      536.458      1.0        1
      13.447      535.412      1.0        1
     306.197      534.366      1.0        1
     238.909      533.320      1.0        1
     171.584      532.274      1.0        1
     104.221      531.227      1.0        1
      36.821      530.181      1.0        1
     329.384      529.134      1.0        1
     261.910      528.087      1.0        1
     194.399      527.040      1.0        1
     126.852      525.993      1.0        1
      59.268      524.946      1.0        1
     351.648      523.899      1.0        1
     283.992      522.851      1.0        1
     216.299      521.803      1.0        1
     148.571      520.756      1.0        1
      80.807      519.708      1.0        1
      13.007      518.660      1.0        1
     305.172      517.612      1.0        1
     237.301      516.564      1.0        1
     169.395      515.516      1.0        1
     101.454      514.468      1.0        1
      33.479      513.420      1.0        1
     325.468      512.372      1.0        1
     257.423      511.323      1.0        1
     189.343      510.275      1.0        1
     121.229      509.226      1.0        1
      53.081      508.178      1.0        1
     344.899      507.129      1.0        1
     276.683      506.081      1.0        1
     208.433      505.032      1.0        1
     140.149      503.984      1.0        1
      71.832      502.935      1.0        1
       3.482      501.886      1.0        1
     295.098      500.838      1.0        1
     226.681      499.789      1.0        1
     158.232      498.741      1.0        1
      89.749      497.692      1.0        1
      21.234      496.643      1.0        1
     312.686      495.595      1.0        1
     244.106      494.546      1.0        1
     175.493      493.497      1.0        1
     106.849      492.449      1.0        1
      38.172      491.400      1.0        1
     329.464      490.352      1.0        1
     260.724      489.303      1.0        1
     191.952      488.255      1.0        1
     123.149      487.207      1.0        1
      54.314      486.158      1.0        1
     345.449      485.110      1.0        1
     276.552      484.062      1.0        1
     207.624      483.014      1.0        1
     138.666      481.966      1.0        1
      69.677      480.918      1.0        1
       0.657      479.870      1.0        1
     291.607      478.822      1.0        1
     222.527      477.774      1.0        1
     153.417      476.727      1.0        1
      84.277      475.679      1.0        1
      15.106      474.632      1.0        1
     305.907      473.585      1.0        1
     236.677      472.537      1.0        1
     167.418      471.490      1.0        1
      98.130      470.443      1.0        1
      28.812      469.397      1.0        1
     319.466      468.350      1.0        1
     250.090      467.303      1.0        1
     180.686      466.257      1.0        1
     111.253      465.211      1.0        1
      41.792      464.165      1.0        1
     332.302      463.119      1.0        1
     262.783      462.073      1.0        1
     193.237      461.027      1.0        1
     123.662      459.982      1.0        1
      54.060      458.936      1.0        1
     344.430      457.891      1.0        1
     274.772      456.846      1.0        1
     205.086      455.802      1.0        1
     135.374      454.757      1.0        1
      65.633      453.713      1.0        1
     355.866      452.669      1.0        1
     286.072      451.625      1.0        1
     216.250      450.581      1.0        1
     146.402      449.537      1.0        1
      76.528      448.494      1.0        1
       6.626      447.451      1.0        1
     296.699      446.408      1.0        1
     226.745      445.366      1.0        1
     156.765      444.323      1.0        1
      86.758      443.281      1.0        1
      16.726      442.239      1.0        1
     306.668      441.198      1.0        1
     236.585      440.156      1.0        1
     166.475      439.115      1.0        1
      96.341      438.074      1.0        1
      26.181      437.034      1.0        1
     315.995      435.993      1.0        1
     245.785      434.953      1.0        1
     175.550      433.914      1.0        1
     105.290      432.874      1.0        1
      35.005      431.835      1.0        1
     324.695      430.796      1.0        1
     254.361      429.758      1.0        1
     184.003      428.719      1.0        1
     113.620      427.681      1.0        1
      43.213      426.644      1.0        1
     332.783      425.606      1.0        1
     262.328      424.569      1.0        1
     191.849      423.533      1.0        1
     121.347      422.496      1.0        1
      50.821      421.460      1.0        1
     340.272      420.425      1.0        1
     269.700      419.389      1.0        1
     199.104      418.354      1.0        1
     128.485      417.320      1.0        1
      57.843      416.286      1.0        1
     347.178      415.252      1.0        1
     276.491      414.218      1.0        1
     205.781      413.185      1.0        1
     135.048      412.152      1.0        1
      64.293      411.120      1.0        1
     353.515      410.088      1.0        1
     282.716      409.057      1.0        1
     211.894      408.025      1.0        1
     141.050      406.995      1.0        1
      70.185      405.964      1.0        1
     359.297      404.934      1.0        1
     288.388      403.905      1.0        1
     217.458      402.876      1.0        1
     146.506      401.847      1.0        1
      75.533      400.819      1.0        1
       4.538      399.791      1.0        1
     293.522      398.763      1.0        1
     222.486      397.736      1.0        1
     151.428      396.710      1.0        1
      80.350      395.684      1.0        1
       9.251      394.658      1.0        1
     298.132      393.633      1.0        1
     226.992      392.608      1.0        1
     155.831      391.584      1.0        1
      84.651      390.560      1.0        1
      13.450      389.537      1.0        1
     302.229      388.514      1.0        1
     230.988      387.492      1.0        1
     159.728      386.470      1.0        1
      88.448      385.449      1.0        1
      17.148      384.428      1.0        1
     305.828      383.408      1.0        1
     234.489      382.388      1.0        1
     163.131      381.369      1.0        1
      91.754      380.350      1.0        1
      20.357      379.332      1.0        1
     308.942      378.314      1.0        1
     237.508      377.297      1.0        1
     166.054      376.280      1.0        1
      94.583      375.264      1.0        1
      23.092      374.249      1.0        1
     311.583      373.234      1.0        1
     240.056      372.219      1.0        1
     168.510      371.205      1.0        1
      96.946      370.192      1.0        1
      25.364      369.179      1.0        1
     313.764      368.167      1.0        1
     242.146      367.156      1.0        1
     170.511      366.145      1.0        1
      98.857      365.134      1.0        1
      27.186      364.124      1.0        1
     315.498      363.115      1.0        1
     243.792      362.106      1.0        1
     172.068      361.098      1.0        1
     100.328      360.091      1.0        1
      28.570      359.084      1.0        1
     316.796      358.078      1.0        1
     245.004      357.072      1.0        1
     173.195      356.067      1.0        1
     101.370      355.063      1.0        1
      29.528      354.059      1.0        1
     317.670      353.056      1.0        1
     245.795      352.054      1.0        1
     173.904      351.052      1.0        1
     101.996      350.051      1.0        1
      30.072      349.050      1.0        1
     318.132      348.051      1.0        1
     246.177      347.051      1.0        1
     174.205      346.053      1.0        1
     102.217      345.055      1.0        1
      30.214      344.058      1.0        1
     318.195      343.062      1.0        1
     246.160      342.066      1.0        1
     174.110      341.071      1.0        1
     102.045      340.076      1.0        1
      29.964      339.083      1.0        1
     317.868      338.090      1.0        1
     245.757      337.098      1.0        1
     173.631      336.106      1.0        1
     101.490      335.115      1.0        1
      29.335      334.125      1.0        1
     317.164      333.136      1.0        1
     244.979      332.147      1.0        1
     172.779      331.159      1.0        1
     100.565      330.172      1.0        1
      28.336      329.186      1.0        1
     316.093      328.200      1.0        1
     243.836      327.215      1.0        1
     171.565      326.231      1.0        1
      99.279      325.247      1.0        1
      26.980      324.265      1.0        1
     314.666      323.283      1.0        1
     242.339      322.302      1.0        1
     169.998      321.321      1.0        1
      97.644      320.342      1.0        1
      25.275      319.363      1.0        1
     312.894      318.385      1.0        1
     240.499      317.408      1.0        1
     168.091      316.432      1.0        1
      95.669      315.456      1.0        1
      23.234      314.481      1.0        1
     310.786      313.507      1.0        1
     238.326      312.534      1.0        1
     165.852      311.562      1.0        1
      93.365      310.590      1.0        1
      20.866      309.620      1.0        1
     308.354      308.650      1.0        1
     235.829      307.681      1.0        1
     163.292      306.713      1.0        1
      90.743      305.745      1.0        1
      18.181      304.779      1.0        1
     305.607      303.813      1.0        1
     233.020      302.849      1.0        1
     160.422      301.885      1.0        1
      87.811      300.922      1.0        1
      15.189      299.960      1.0        1
     302.554      298.998      1.0        1
     229.908      298.038      1.0        1
     157.250      297.079      1.0        1
      84.580      296.120      1.0        1
      11.899      295.162      1.0        1
     299.206      294.205      1.0        1
     226.502      293.250      1.0        1
     153.786      292.295      1.0        1
      81.059      291.340      1.0        1
       8.321      290.387      1.0        1
     295.571      289.435      1.0        1
     222.811      288.484      1.0        1
     150.040      287.533      1.0        1
      77.257      286.584      1.0        1
       4.464      285.635      1.0        1
     291.660      284.688      1.0        1
     218.845      283.741      1.0        1
     146.020      282.795      1.0        1
      73.184      281.850      1.0        1
       0.337      280.907      1.0        1
     287.480      279.964      1.0        1
     214.613      279.022      1.0        1
     141.735      278.081      1.0        1
      68.847      277.141      1.0        1
     355.949      276.202      1.0        1
     283.041      275.264      1.0        1
     210.123      274.327      1.0        1
     137.195      273.391      1.0        1
      64.257      272.456      1.0        1
     351.309      271.522      1.0        1
     278.352      270.589      1.0        1
     205.384      269.657      1.0        1
     132.407      268.726      1.0        1
      59.421      267.796      1.0        1
     346.425      266.867      1.0        1
     273.420      265.939      1.0        1
     200.405      265.012      1.0        1
     127.381      264.086      1.0        1
      54.347      263.161      1.0        1
     341.305      262.237      1.0        1
     268.253      261.315      1.0        1
     195.193      260.393      1.0        1
     122.123      259.472      1.0        1
      49.045      258.553      1.0        1
     335.957      257.634      1.0        1
     262.861      256.716      1.0        1
     189.757      255.800      1.0        1
     116.643      254.885      1.0        1
      43.521      253.970      1.0        1
     330.390      253.057      1.0        1
     257.251      252.145      1.0        1
     184.104      251.234      1.0        1
     110.948      250.324      1.0        1
      37.783      249.415      1.0        1
     324.611      248.507      1.0        1
     251.430      247.600      1.0        1
     178.242      246.695      1.0        1
     105.045      245.790      1.0        1
      31.840      244.887      1.0        1
     318.627      243.985      1.0        1
     245.406      243.084      1.0        1
     172.178      242.184      1.0        1
      98.942      241.285      1.0        1
      25.698      240.387      1.0        1
     312.446      239.490      1.0        1
     239.187      238.595      1.0        1
     165.920      237.701      1.0        1
      92.646      236.808      1.0        1
      19.364      235.916      1.0        1
     306.075      235.025      1.0        1
     232.779      234.135      1.0        1
     159.475      233.246      1.0        1
      86.164      232.359      1.0        1
      12.846      231.473      1.0        1
     299.521      230.588      1.0        1
     226.189      229.704      1.0        1
     152.850      228.821      1.0        1
      79.504      227.940      1.0        1
       6.151      227.060      1.0        1
     292.791      226.181      1.0        1
     219.425      225.303      1.0        1
     146.051      224.426      1.0        1
      72.671      223.551      1.0        1
     359.285      222.676      1.0        1
     285.892      221.803      1.0        1
     212.492      220.932      1.0        1
     139.086      220.061      1.0        1
      65.673      219.192      1.0        1
     352.254      218.324      1.0        1
     278.829      217.457      1.0        1
     205.397      216.591      1.0        1
     131.959      215.727      1.0        1
      58.515      214.863      1.0        1
     345.065      214.002      1.0        1
     271.609      213.141      1.0        1
     198.147      212.281      1.0        1
     124.679      211.423      1.0        1
      51.205      210.566      1.0        1
     337.725      209.711      1.0        1
     264.239      208.856      1.0        1
     190.748      208.003      1.0        1
     117.250      207.152      1.0        1
      43.747      206.301      1.0        1
     330.239      205.452      1.0        1
     256.724      204.604      1.0        1
     183.204      203.757      1.0        1
     109.679      202.912      1.0        1
      36.148      202.068      1.0        1
     322.612      201.225      1.0        1
     249.071      200.384      1.0        1
     175.524      199.544      1.0        1
     101.971      198.705      1.0        1
      28.414      197.867      1.0        1
     314.851      197.031      1.0        1
     241.284      196.197      1.0        1
     167.711      195.363      1.0        1
      94.133      194.531      1.0        1
      20.550      193.700      1.0        1
     306.962      192.871      1.0        1
     233.369      192.043      1.0        1
     159.771      191.216      1.0        1
      86.169      190.390      1.0        1
      12.561      189.566      1.0        1
     298.949      188.744      1.0        1
     225.332      187.922      1.0        1
     151.710      187.102      1.0        1
      78.084      186.284      1.0        1
       4.453      185.466      1.0        1
     290.818      184.651      1.0        1
     217.178      183.836      1.0        1
     143.533      183.023      1.0        1
      69.884      182.211      1.0        1
     356.231      181.401      1.0        1
     282.573      180.592      1.0        1
     208.911      179.785      1.0        1
     135.245      178.979      1.0        1
      61.574      178.174      1.0        1
     347.899      177.371      1.0        1
     274.220      176.569      1.0        1
     200.537      175.768      1.0        1
     126.850      174.969      1.0        1
      53.158      174.172      1.0        1
     339.463      173.376      1.0        1
     265.764      172.581      1.0        1
     192.060      171.788      1.0        1
     118.353      170.996      1.0        1
      44.642      170.205      1.0        1
     330.927      169.416      1.0        1
     257.208      168.629      1.0        1
     183.486      167.843      1.0        1
     109.759      167.058      1.0        1
      36.029      166.275      1.0        1
     322.296      165.493      1.0        1
     248.558      164.713      1.0        1
     174.817      163.934      1.0        1
     101.073      163.157      1.0        1
      27.325      162.381      1.0        1
     313.573      161.607      1.0        1
     239.818      160.834      1.0        1
     166.060      160.063      1.0        1
      92.298      159.293      1.0        1
      18.533      158.524      1.0        1
     304.764      157.757      1.0        1
     230.992      156.992      1.0        1
     157.217      156.228      1.0        1
      83.438      155.466      1.0        1
       9.657      154.705      1.0        1
     295.872      153.946      1.0        1
     222.084      153.188      1.0        1
     148.293      152.431      1.0        1
      74.498      151.677      1.0        1
       0.701      150.923      1.0        1
     286.901      150.172      1.0        1
     213.098      149.422      1.0        1
     139.291      148.673      1.0        1
      65.482      147.926      1.0        1
     351.670      147.180      1.0        1
     277.855      146.436      1.0        1
     204.037      145.694      1.0        1
     130.216      144.953      1.0        1
      56.393      144.213      1.0        1
     342.566      143.476      1.0        1
     268.737      142.739      1.0        1
     194.906      142.005      1.0        1
     121.071      141.272      1.0        1
      47.234      140.540      1.0        1
     333.394      139.810      1.0        1
     259.552      139.082      1.0        1
     185.707      138.355      1.0        1
     111.860      137.630      1.0        1
      38.010      136.906      1.0        1
     324.157      136.184      1.0        1
     250.302      135.464      1.0        1
     176.445      134.745      1.0        1
     102.585      134.027      1.0        1
      28.723      133.312      1.0        1
     314.858      132.598      1.0        1
     240.991      131.885      1.0        1
     167.122      131.175      1.0        1
      93.250      130.465      1.0        1
      19.377      129.758      1.0        1
     305.500      129.052      1.0        1
     231.622      128.348      1.0        1
     157.742      127.645      1.0        1
      83.859      126.944      1.0        1
       9.974      126.244      1.0        1
     296.087      125.547      1.0        1
     222.198      124.850      1.0        1
     148.307      124.156      1.0        1
      74.414      123.463      1.0        1
       0.519      122.772      1.0        1
     286.621      122.082      1.0        1
     212.722      121.394      1.0        1
     138.821      120.708      1.0        1
      64.918      120.024      1.0        1
     351.013      119.341      1.0        1
     277.106      118.660      1.0        1
     203.197      117.980      1.0        1
     129.286      117.302      1.0        1
      55.374      116.626      1.0        1
     341.459      115.951      1.0        1
     267.543      115.278      1.0        1
     193.625      114.607      1.0        1
     119.706      113.938      1.0        1
      45.784      113.270      1.0        1
     331.861      112.604      1.0        1
     257.936      111.940      1.0        1
     184.010      111.277      1.0        1
     110.081      110.616      1.0        1
      36.152      109.957      1.0        1
     322.220      109.299      1.0        1
     248.287      108.643      1.0        1
     174.353      107.989      1.0        1
     100.416      107.337      1.0        1
      26.479      106.686      1.0        1
     312.539      106.037      1.0        1
     238.599      105.390      1.0        1
     164.656      104.744      1.0        1
      90.713      104.101      1.0        1
      16.768      103.459      1.0        1
     302.821      102.818      1.0        1
     228.873      102.180      1.0        1
     154.924      101.543      1.0        1
      80.973      100.908      1.0        1
       7.021      100.274      1.0        1
     293.067       99.643      1.0        1
     219.112       99.013      1.0        1
     145.156       98.385      1.0        1
      71.199       97.759      1.0        1
     357.240       97.134      1.0        1
     283.280       96.511      1.0        1
     209.319       95.890      1.0        1
     135.356       95.271      1.0        1
      61.393       94.654      1.0        1
     347.428       94.038      1.0        1
     273.462       93.424      1.0        1
     199.495       92.812      1.0        1
     125.526       92.202      1.0        1
      51.557       91.593      1.0        1
     337.586       90.987      1.0        1
     263.614       90.382      1.0        1
     189.641       89.778      1.0        1
     115.667       89.177      1.0        1
      41.692       88.578      1.0        1
     327.716       87.980      1.0        1
     253.739       87.384      1.0        1
     179.761       86.790      1.0        1
     105.782       86.197      1.0        1
      31.802       85.607      1.0        1
     317.820       85.018      1.0        1
     243.838       84.431      1.0        1
     169.855       83.846      1.0        1
      95.871       83.263      1.0        1
      21.886       82.682      1.0        1
     307.900       82.102      1.0        1
     233.914       81.524      1.0        1
     159.926       80.948      1.0        1
      85.937       80.374      1.0        1
      11.948       79.802      1.0        1
     297.958       79.232      1.0        1
     223.967       78.663      1.0        1
     149.975       78.096      1.0        1
      75.982       77.532      1.0        1
       1.988       76.969      1.0        1
     287.994       76.408      1.0        1
     213.999       75.848      1.0        1
     140.003       75.291      1.0        1
      66.006       74.735      1.0        1
     352.008       74.182      1.0        1
     278.010       73.630      1.0        1
     204.011       73.080      1.0        1
     130.012       72.532      1.0        1
      56.011       71.986      1.0        1
     342.010       71.441      1.0        1
     268.008       70.899      1.0        1
     194.006       70.358      1.0        1
     120.003       69.819      1.0        1
      45.999       69.283      1.0        1
     331.995       68.748      1.0        1
     257.990       68.215      1.0        1
     183.984       67.684      1.0        1
     109.977       67.154      1.0        1
      35.971       66.627      1.0        1
     321.963       66.102      1.0        1
     247.955       65.578      1.0        1
     173.946       65.056      1.0        1
      99.937       64.537      1.0        1
      25.927       64.019      1.0        1
     311.917       63.503      1.0        1
     237.906       62.989      1.0        1
     163.894       62.477      1.0        1
      89.882       61.967      1.0        1
      15.870       61.459      1.0        1
     301.857       60.952      1.0        1
     227.843       60.448      1.0        1
     153.829       59.945      1.0        1
      79.815       59.445      1.0        1
       5.800       58.946      1.0        1
     291.784       58.450      1.0        1
     217.768       57.955      1.0        1
     143.752       57.462      1.0        1
      69.735       56.971      1.0        1
     355.718       56.482      1.0        1
     281.700       55.995      1.0        1
     207.682       55.510      1.0        1
     133.663       55.027      1.0        1
      59.644       54.546      1.0        1
     345.625       54.067      1.0        1
     271.605       53.590      1.0        1
     197.585       53.115      1.0        1
     123.564       52.641      1.0        1
      49.543       52.170      1.0        1
     335.522       51.701      1.0        1
     261.500       51.233      1.0        1
     187.478       50.768      1.0        1
     113.456       50.304      1.0        1
      39.433       49.843      1.0        1
     325.410       49.383      1.0        1
     251.387       48.926      1.0        1
     177.363       48.470      1.0        1
     103.339       48.017      1.0        1
      29.314       47.565      1.0        1
     315.290       47.116      1.0        1
     241.265       46.668      1.0        1
     167.239       46.222      1.0        1
      93.214       45.779      1.0        1
      19.188       45.337      1.0        1
     305.162       44.897      1.0        1
     231.135       44.460      1.0        1
     157.109       44.024      1.0        1
      83.082       43.590      1.0        1
       9.054       43.159      1.0        1
     295.027       42.729      1.0        1
     220.999       42.301      1.0        1
     146.971       41.876      1.0        1
      72.943       41.452      1.0        1
     358.915       41.030      1.0        1
     284.886       40.611      1.0        1
     210.857       40.193      1.0        1
     136.828       39.778      1.0        1
      62.798       39.364      1.0        1
     348.769       38.952      1.0        1
     274.739       38.543      1.0        1
     200.709       38.135      1.0        1
     126.679       37.730      1.0        1
      52.648       37.326      1.0        1
     338.618       36.925      1.0        1
     264.587       36.526      1.0        1
     190.556       36.128      1.0        1
     116.525       35.733      1.0        1
      42.494       35.340      1.0        1
     328.462       34.948      1.0        1
     254.431       34.559      1.0        1
     180.399       34.172      1.0        1
     106.367       33.787      1.0        1
      32.335       33.404      1.0        1
     318.302       33.023      1.0        1
     244.270       32.644      1.0        1
     170.237       32.267      1.0        1
      96.204       31.892      1.0        1
      22.172       31.519      1.0        1
     308.139       31.148      1.0        1
     234.105       30.779      1.0        1
     160.072       30.413      1.0        1
      86.039       30.048      1.0        1
      12.005       29.686      1.0        1
     297.971       29.325      1.0        1
     223.938       28.967      1.0        1
     149.904       28.610      1.0        1
      75.870       28.256      1.0        1
       1.835       27.904      1.0        1
     287.801       27.554      1.0        1
     213.767       27.206      1.0        1
     139.732       26.860      1.0        1
      65.698       26.516      1.0        1
     351.663       26.174      1.0        1
     277.628       25.834      1.0        1
     203.594       25.496      1.0        1
     129.559       25.161      1.0        1
      55.524       24.827      1.0        1
     341.488       24.496      1.0        1
     267.453       24.166      1.0        1
     193.418       23.839      1.0        1
     119.383       23.514      1.0        1
      45.347       23.191      1.0        1
     331.312       22.870      1.0        1
     257.276       22.551      1.0        1
     183.240       22.234      1.0        1
     109.204       21.919      1.0        1
      35.169       21.606      1.0        1
     321.133       21.296      1.0        1
     247.097       20.987      1.0        1
     173.061       20.681      1.0        1
      99.025       20.377      1.0        1
      24.989       20.075      1.0        1
     310.952       19.775      1.0        1
     236.916       19.477      1.0        1
     162.880       19.181      1.0        1
      88.843       18.887      1.0        1
      14.807       18.596      1.0        1
     300.771       18.306      1.0        1
     226.734       18.019      1.0        1
     152.697       17.734      1.0        1
      78.661       17.450      1.0        1
       4.624       17.169      1.0        1
     290.588       16.890      1.0        1
     216.551       16.614      1.0        1
     142.514       16.339      1.0        1
      68.477       16.066      1.0        1
     354.440       15.796      1.0        1
     280.403       15.528      1.0        1
     206.366       15.261      1.0        1
     132.330       14.997      1.0        1
      58.293       14.735      1.0        1
     344.255       14.476      1.0        1
     270.218       14.218      1.0        1
     196.181       13.962      1.0        1
     122.144       13.709      1.0        1
      48.107       13.458      1.0        1
     334.070       13.209      1.0        1
     260.033       12.961      1.0        1
     185.995       12.717      1.0        1
     111.958       12.474      1.0        1
      37.921       12.233      1.0        1
     323.884       11.995      1.0        1
     249.846       11.758      1.0        1
     175.809       11.524      1.0        1
     101.772       11.292      1.0        1
      27.734       11.062      1.0        1
     313.697       10.835      1.0        1
     239.659       10.609      1.0        1
     165.622       10.385      1.0        1
      91.584       10.164      1.0        1
      17.547        9.945      1.0        1
     303.509        9.728      1.0        1
     229.472        9.513      1.0        1
     155.434        9.300      1.0        1
      81.397        9.090      1.0        1
       7.359        8.881      1.0        1
     293.322        8.675      1.0        1
     219.284        8.471      1.0        1
     145.247        8.269      1.0        1
      71.209        8.069      1.0        1
     357.171        7.872      1.0        1
     283.134        7.676      1.0        1
     209.096        7.483      1.0        1
     135.059        7.292      1.0        1
      61.021        7.103      1.0        1
     346.983        6.916      1.0        1
     272.946        6.731      1.0        1
     198.908        6.549      1.0        1
     124.870        6.368      1.0        1
      50.833        6.190      1.0        1
     336.795        6.014      1.0        1
     262.757        5.840      1.0        1
     188.719        5.668      1.0        1
     114.682        5.499      1.0        1
      40.644        5.332      1.0        1
     326.606        5.166      1.0        1
     252.569        5.003      1.0        1
     178.531        4.843      1.0        1
     104.493        4.684      1.0        1
      30.455        4.527      1.0        1
     316.418        4.373      1.0        1
     242.380        4.221      1.0        1
     168.342        4.071      1.0        1
      94.304        3.923      1.0        1
      20.267        3.777      1.0        1
     306.229        3.634      1.0        1
     232.191        3.493      1.0        1
     158.153        3.354      1.0        1
      84.116        3.217      1.0        1
      10.078        3.082      1.0        1
     296.040        2.949      1.0        1
     222.002        2.819      1.0        1
     147.964        2.691      1.0        1
      73.927        2.565      1.0        1
     359.889        2.441      1.0        1
     285.851        2.319      1.0        1
     211.813        2.200      1.0        1
     137.776        2.083      1.0        1
      63.738        1.967      1.0        1
     349.700        1.855      1.0        1
     275.662        1.744      1.0        1
     201.624        1.635      1.0        1
     127.587        1.529      1.0        1
      53.549        1.425      1.0        1
     339.511        1.323      1.0        1
     265.473        1.223      1.0        1
     191.435        1.125      1.0        1
     117.398        1.030      1.0        1
      43.360        0.937      1.0        1
     329.322        0.845      1.0        1
     255.284        0.757      1.0        1
     181.246        0.670      1.0        1
     107.209        0.585      1.0        1
      33.171        0.503      1.0        1
     319.133        0.423      1.0        1
     245.095        0.345      1.0        1
     171.057        0.269      1.0        1
      97.020        0.196      1.0        1
      22.982        0.124      1.0        1
     308.944        0.055      1.0        1
     234.906        0.000      1.0        1
     160.868        0.000      1.0        1
      86.831        0.000      1.0        1
      12.793        0.000      1.0        1
     298.755        0.000      1.0        1
     224.717        0.000      1.0        1
     150.679        0.000      1.0        1
      76.642        0.000      1.0        1
       2.604        0.000      1.0        1
     288.566        0.000      1.0        0
     214.528        0.000      1.0        0
     140.490        0.000      1.0        0
      66.453        0.000      1.0        0
     352.415        0.000      1.0        0
     278.377        0.000      1.0        0
     204.339        0.000      1.0        0
     130.301        0.000      1.0        0
      56.264        0.000      1.0        0
     342.226        0.000      1.0        0
     268.188        0.000      1.0        0
     194.150        0.000      1.0        0
     120.112        0.000      1.0        0
      46.075        0.000      1.0        0
     332.037        0.000      1.0        0
     257.999        0.000      1.0        0
     183.961        0.000      1.0        0
     109.924        0.000      1.0        0
      35.886        0.000      1.0        0
     321.848        0.000      1.0        0
     247.810        0.000      1.0        0
       0.000        0.000      1.0        0
