# Pbox  30000.00  33 4095  0.0     0    1.0000 1.39067     6
# VJ4.2  pw (us)  pwr  pwrf  dres  dmf  dcyc   B1max (kHz)  Stype
# ---------------------------------------------------------------
# Pxsim 0.0300000 1343.3095 0.000 191326.8 0.0000000 0.0000000 0.00
# data: pw (s) B1max (Hz) status sw (Hz) T1 (s)   T2 (s) RDC (Hz)
# ---------------------------------------------------------------
# Pbox.inp data :
# ~~~~~~~~~~~~~~~~~~~~~~~~~~~Waves~~~~~~~~~~~~~~~~~~~~~~~~~~~~~~~~~~
#   shape   bw(/pw)   ofs  st  ph  fla  trev  d1  d2   d0   wrp  php
# ~~~~~~~~~~~~~~~~~~~~~~~~~~~~~~~~~~~~~~~~~~~~~~~~~~~~~~~~~~~~~~~~~~
# { wurst2i 31887.8/0.0300000 }
#
# type      = r          mod       = n          dres      = n         
# steps     = n          stepsize  = 10.00      attn      = i         
# refofs    = n          wrap      = n          sfrq      = n         
# sucyc     = d          reps      = 2          header    = y         
# bscor     = n          pad1      = n          pad2      = n         
# bsim      = n          T1        = n          T2        = n         
# rdc       = n          dcyc      = n          sw        = n         
#
# RF Calibration Data :  ref_pwr   = 60         ref_pw90  = 8.03
# ~~~~~~~~~~~~~~~~~~~~~
###
# ------------------- Shape data ------------------
# pwtot      = 0.0300000 (total pw, s)
# power      = 33 (power level, dB)
# pwrf       = 4095 (fine power)
# B1max      = 1.3907 (B1max, kHz)
# B1rms      = 0.8225 (B1[RMS], kHz)
# nptot      = 3000 (total number of steps)
# stepsize   = 10.00 (length of a single step, us)
# maxamp     = 989.1 (max amplitude)
# ------------------------------------------------- 
#      phase      amplitude   length     gate 
# ------------------------------------------------- 
        0.00      1023.00      0.0        0
       0.000        0.000      1.0        0
     346.338        0.000      1.0        0
      43.755        0.000      1.0        0
     101.172        0.000      1.0        0
     158.589        0.000      1.0        0
     216.006        0.000      1.0        0
     273.424        0.000      1.0        0
     330.841        0.000      1.0        0
      28.258        0.000      1.0        0
      85.675        0.000      1.0        0
     143.092        0.000      1.0        0
     200.510        0.000      1.0        0
     257.927        0.000      1.0        0
     315.344        0.000      1.0        0
      12.761        0.000      1.0        0
      70.178        0.000      1.0        0
     127.595        0.000      1.0        0
     185.013        0.000      1.0        0
     242.430        0.000      1.0        0
     299.847        0.000      1.0        0
     357.264        0.000      1.0        0
      54.681        0.000      1.0        0
     112.099        0.000      1.0        1
     169.516        0.000      1.0        1
     226.933        0.000      1.0        1
     284.350        0.000      1.0        1
     341.767        0.000      1.0        1
      39.184        0.000      1.0        1
      96.602        0.000      1.0        1
     154.019        0.000      1.0        1
     211.436        0.000      1.0        1
     268.853        0.043      1.0        1
     326.270        0.111      1.0        1
      23.687        0.182      1.0        1
      81.105        0.254      1.0        1
     138.522        0.329      1.0        1
     195.939        0.406      1.0        1
     253.356        0.485      1.0        1
     310.773        0.567      1.0        1
       8.191        0.650      1.0        1
      65.608        0.736      1.0        1
     123.025        0.823      1.0        1
     180.442        0.913      1.0        1
     237.859        1.006      1.0        1
     295.276        1.100      1.0        1
     352.694        1.196      1.0        1
      50.111        1.295      1.0        1
     107.528        1.396      1.0        1
     164.945        1.499      1.0        1
     222.362        1.604      1.0        1
     279.779        1.711      1.0        1
     337.197        1.820      1.0        1
      34.614        1.932      1.0        1
      92.031        2.046      1.0        1
     149.448        2.162      1.0        1
     206.865        2.280      1.0        1
     264.282        2.400      1.0        1
     321.700        2.522      1.0        1
      19.117        2.647      1.0        1
      76.534        2.774      1.0        1
     133.951        2.902      1.0        1
     191.368        3.033      1.0        1
     248.785        3.166      1.0        1
     306.203        3.302      1.0        1
       3.620        3.439      1.0        1
      61.037        3.579      1.0        1
     118.454        3.721      1.0        1
     175.871        3.864      1.0        1
     233.288        4.011      1.0        1
     290.706        4.159      1.0        1
     348.123        4.309      1.0        1
      45.540        4.462      1.0        1
     102.957        4.616      1.0        1
     160.374        4.773      1.0        1
     217.791        4.932      1.0        1
     275.208        5.093      1.0        1
     332.625        5.256      1.0        1
      30.043        5.422      1.0        1
      87.460        5.589      1.0        1
     144.877        5.759      1.0        1
     202.294        5.930      1.0        1
     259.711        6.104      1.0        1
     317.128        6.280      1.0        1
      14.545        6.459      1.0        1
      71.962        6.639      1.0        1
     129.379        6.821      1.0        1
     186.796        7.006      1.0        1
     244.213        7.193      1.0        1
     301.630        7.382      1.0        1
     359.047        7.573      1.0        1
      56.465        7.766      1.0        1
     113.882        7.961      1.0        1
     171.299        8.159      1.0        1
     228.716        8.358      1.0        1
     286.133        8.560      1.0        1
     343.550        8.764      1.0        1
      40.967        8.970      1.0        1
      98.384        9.178      1.0        1
     155.801        9.388      1.0        1
     213.217        9.600      1.0        1
     270.634        9.815      1.0        1
     328.051       10.031      1.0        1
      25.468       10.250      1.0        1
      82.885       10.471      1.0        1
     140.302       10.694      1.0        1
     197.719       10.919      1.0        1
     255.136       11.146      1.0        1
     312.553       11.375      1.0        1
       9.969       11.606      1.0        1
      67.386       11.840      1.0        1
     124.803       12.076      1.0        1
     182.220       12.313      1.0        1
     239.637       12.553      1.0        1
     297.053       12.795      1.0        1
     354.470       13.039      1.0        1
      51.887       13.285      1.0        1
     109.303       13.534      1.0        1
     166.720       13.784      1.0        1
     224.137       14.037      1.0        1
     281.553       14.291      1.0        1
     338.970       14.548      1.0        1
      36.386       14.807      1.0        1
      93.803       15.068      1.0        1
     151.220       15.331      1.0        1
     208.636       15.596      1.0        1
     266.052       15.863      1.0        1
     323.469       16.132      1.0        1
      20.885       16.404      1.0        1
      78.302       16.677      1.0        1
     135.718       16.953      1.0        1
     193.134       17.231      1.0        1
     250.550       17.510      1.0        1
     307.967       17.792      1.0        1
       5.383       18.076      1.0        1
      62.799       18.362      1.0        1
     120.215       18.650      1.0        1
     177.631       18.941      1.0        1
     235.047       19.233      1.0        1
     292.463       19.527      1.0        1
     349.879       19.824      1.0        1
      47.295       20.122      1.0        1
     104.711       20.423      1.0        1
     162.127       20.725      1.0        1
     219.542       21.030      1.0        1
     276.958       21.337      1.0        1
     334.374       21.646      1.0        1
      31.789       21.957      1.0        1
      89.205       22.270      1.0        1
     146.620       22.585      1.0        1
     204.036       22.902      1.0        1
     261.451       23.222      1.0        1
     318.866       23.543      1.0        1
      16.282       23.866      1.0        1
      73.697       24.192      1.0        1
     131.112       24.519      1.0        1
     188.527       24.849      1.0        1
     245.942       25.181      1.0        1
     303.357       25.514      1.0        1
       0.772       25.850      1.0        1
      58.186       26.188      1.0        1
     115.601       26.528      1.0        1
     173.016       26.869      1.0        1
     230.430       27.213      1.0        1
     287.845       27.559      1.0        1
     345.259       27.907      1.0        1
      42.673       28.257      1.0        1
     100.087       28.610      1.0        1
     157.502       28.964      1.0        1
     214.916       29.320      1.0        1
     272.329       29.678      1.0        1
     329.743       30.038      1.0        1
      27.157       30.401      1.0        1
      84.570       30.765      1.0        1
     141.984       31.132      1.0        1
     199.397       31.500      1.0        1
     256.811       31.870      1.0        1
     314.224       32.243      1.0        1
      11.637       32.617      1.0        1
      69.050       32.994      1.0        1
     126.463       33.372      1.0        1
     183.875       33.753      1.0        1
     241.288       34.135      1.0        1
     298.700       34.520      1.0        1
     356.112       34.907      1.0        1
      53.525       35.295      1.0        1
     110.937       35.686      1.0        1
     168.348       36.078      1.0        1
     225.760       36.473      1.0        1
     283.172       36.870      1.0        1
     340.583       37.268      1.0        1
      37.995       37.669      1.0        1
      95.406       38.072      1.0        1
     152.817       38.476      1.0        1
     210.227       38.883      1.0        1
     267.638       39.292      1.0        1
     325.048       39.702      1.0        1
      22.459       40.115      1.0        1
      79.869       40.530      1.0        1
     137.279       40.946      1.0        1
     194.689       41.365      1.0        1
     252.098       41.785      1.0        1
     309.508       42.208      1.0        1
       6.917       42.632      1.0        1
      64.326       43.059      1.0        1
     121.734       43.487      1.0        1
     179.143       43.918      1.0        1
     236.551       44.350      1.0        1
     293.960       44.785      1.0        1
     351.368       45.221      1.0        1
      48.775       45.660      1.0        1
     106.183       46.100      1.0        1
     163.590       46.542      1.0        1
     220.997       46.986      1.0        1
     278.404       47.433      1.0        1
     335.810       47.881      1.0        1
      33.217       48.331      1.0        1
      90.623       48.783      1.0        1
     148.028       49.237      1.0        1
     205.434       49.693      1.0        1
     262.839       50.151      1.0        1
     320.244       50.611      1.0        1
      17.649       51.073      1.0        1
      75.053       51.536      1.0        1
     132.457       52.002      1.0        1
     189.861       52.470      1.0        1
     247.265       52.939      1.0        1
     304.668       53.411      1.0        1
       2.071       53.884      1.0        1
      59.473       54.360      1.0        1
     116.876       54.837      1.0        1
     174.277       55.316      1.0        1
     231.679       55.797      1.0        1
     289.080       56.281      1.0        1
     346.481       56.766      1.0        1
      43.882       57.252      1.0        1
     101.282       57.741      1.0        1
     158.682       58.232      1.0        1
     216.082       58.725      1.0        1
     273.481       59.219      1.0        1
     330.879       59.716      1.0        1
      28.278       60.214      1.0        1
      85.676       60.714      1.0        1
     143.073       61.217      1.0        1
     200.471       61.721      1.0        1
     257.867       62.227      1.0        1
     315.264       62.734      1.0        1
      12.660       63.244      1.0        1
      70.055       63.756      1.0        1
     127.450       64.269      1.0        1
     184.845       64.785      1.0        1
     242.239       65.302      1.0        1
     299.633       65.821      1.0        1
     357.026       66.342      1.0        1
      54.419       66.865      1.0        1
     111.811       67.390      1.0        1
     169.203       67.917      1.0        1
     226.594       68.445      1.0        1
     283.985       68.976      1.0        1
     341.375       69.508      1.0        1
      38.765       70.042      1.0        1
      96.154       70.578      1.0        1
     153.543       71.116      1.0        1
     210.931       71.656      1.0        1
     268.319       72.197      1.0        1
     325.706       72.741      1.0        1
      23.092       73.286      1.0        1
      80.478       73.833      1.0        1
     137.863       74.382      1.0        1
     195.248       74.933      1.0        1
     252.632       75.485      1.0        1
     310.016       76.040      1.0        1
       7.399       76.596      1.0        1
      64.781       77.154      1.0        1
     122.163       77.714      1.0        1
     179.544       78.276      1.0        1
     236.924       78.839      1.0        1
     294.304       79.405      1.0        1
     351.683       79.972      1.0        1
      49.061       80.541      1.0        1
     106.438       81.112      1.0        1
     163.815       81.685      1.0        1
     221.192       82.259      1.0        1
     278.567       82.835      1.0        1
     335.942       83.413      1.0        1
      33.316       83.993      1.0        1
      90.689       84.575      1.0        1
     148.061       85.158      1.0        1
     205.433       85.744      1.0        1
     262.804       86.331      1.0        1
     320.174       86.920      1.0        1
      17.544       87.510      1.0        1
      74.912       88.103      1.0        1
     132.280       88.697      1.0        1
     189.647       89.293      1.0        1
     247.013       89.890      1.0        1
     304.378       90.490      1.0        1
       1.742       91.091      1.0        1
      59.105       91.694      1.0        1
     116.468       92.299      1.0        1
     173.829       92.906      1.0        1
     231.190       93.514      1.0        1
     288.550       94.124      1.0        1
     345.908       94.736      1.0        1
      43.266       95.350      1.0        1
     100.623       95.965      1.0        1
     157.979       96.582      1.0        1
     215.334       97.201      1.0        1
     272.688       97.821      1.0        1
     330.040       98.444      1.0        1
      27.392       99.068      1.0        1
      84.743       99.694      1.0        1
     142.093      100.321      1.0        1
     199.441      100.950      1.0        1
     256.789      101.581      1.0        1
     314.135      102.214      1.0        1
      11.481      102.848      1.0        1
      68.825      103.484      1.0        1
     126.168      104.122      1.0        1
     183.510      104.762      1.0        1
     240.850      105.403      1.0        1
     298.190      106.046      1.0        1
     355.528      106.691      1.0        1
      52.866      107.337      1.0        1
     110.201      107.985      1.0        1
     167.536      108.635      1.0        1
     224.870      109.286      1.0        1
     282.202      109.939      1.0        1
     339.533      110.594      1.0        1
      36.862      111.250      1.0        1
      94.190      111.909      1.0        1
     151.517      112.568      1.0        1
     208.843      113.230      1.0        1
     266.167      113.893      1.0        1
     323.490      114.558      1.0        1
      20.812      115.224      1.0        1
      78.132      115.892      1.0        1
     135.450      116.562      1.0        1
     192.767      117.234      1.0        1
     250.083      117.907      1.0        1
     307.397      118.582      1.0        1
       4.710      119.258      1.0        1
      62.021      119.936      1.0        1
     119.331      120.616      1.0        1
     176.639      121.297      1.0        1
     233.946      121.980      1.0        1
     291.251      122.665      1.0        1
     348.554      123.351      1.0        1
      45.856      124.039      1.0        1
     103.156      124.728      1.0        1
     160.455      125.419      1.0        1
     217.752      126.112      1.0        1
     275.047      126.806      1.0        1
     332.340      127.502      1.0        1
      29.632      128.200      1.0        1
      86.922      128.899      1.0        1
     144.210      129.600      1.0        1
     201.497      130.302      1.0        1
     258.782      131.006      1.0        1
     316.064      131.711      1.0        1
      13.345      132.419      1.0        1
      70.625      133.127      1.0        1
     127.902      133.838      1.0        1
     185.177      134.549      1.0        1
     242.451      135.263      1.0        1
     299.722      135.978      1.0        1
     356.992      136.694      1.0        1
      54.259      137.413      1.0        1
     111.525      138.132      1.0        1
     168.789      138.853      1.0        1
     226.050      139.576      1.0        1
     283.310      140.301      1.0        1
     340.567      141.027      1.0        1
      37.822      141.754      1.0        1
      95.075      142.483      1.0        1
     152.326      143.214      1.0        1
     209.575      143.946      1.0        1
     266.822      144.679      1.0        1
     324.066      145.415      1.0        1
      21.309      146.151      1.0        1
      78.548      146.889      1.0        1
     135.786      147.629      1.0        1
     193.021      148.370      1.0        1
     250.254      149.113      1.0        1
     307.485      149.858      1.0        1
       4.713      150.603      1.0        1
      61.939      151.351      1.0        1
     119.163      152.099      1.0        1
     176.384      152.850      1.0        1
     233.602      153.601      1.0        1
     290.818      154.355      1.0        1
     348.032      155.110      1.0        1
      45.243      155.866      1.0        1
     102.451      156.624      1.0        1
     159.657      157.383      1.0        1
     216.860      158.143      1.0        1
     274.061      158.906      1.0        1
     331.259      159.669      1.0        1
      28.454      160.434      1.0        1
      85.647      161.201      1.0        1
     142.836      161.969      1.0        1
     200.023      162.738      1.0        1
     257.207      163.509      1.0        1
     314.389      164.282      1.0        1
      11.567      165.056      1.0        1
      68.743      165.831      1.0        1
     125.916      166.608      1.0        1
     183.085      167.386      1.0        1
     240.252      168.165      1.0        1
     297.416      168.946      1.0        1
     354.577      169.729      1.0        1
      51.735      170.513      1.0        1
     108.889      171.298      1.0        1
     166.041      172.085      1.0        1
     223.189      172.873      1.0        1
     280.335      173.662      1.0        1
     337.477      174.453      1.0        1
      34.616      175.245      1.0        1
      91.752      176.039      1.0        1
     148.884      176.834      1.0        1
     206.013      177.631      1.0        1
     263.139      178.428      1.0        1
     320.261      179.228      1.0        1
      17.380      180.028      1.0        1
      74.496      180.830      1.0        1
     131.608      181.634      1.0        1
     188.717      182.439      1.0        1
     245.822      183.245      1.0        1
     302.924      184.052      1.0        1
       0.022      184.861      1.0        1
      57.116      185.671      1.0        1
     114.207      186.483      1.0        1
     171.294      187.296      1.0        1
     228.377      188.110      1.0        1
     285.457      188.925      1.0        1
     342.533      189.742      1.0        1
      39.605      190.561      1.0        1
      96.674      191.380      1.0        1
     153.738      192.201      1.0        1
     210.799      193.023      1.0        1
     267.855      193.847      1.0        1
     324.908      194.672      1.0        1
      21.957      195.498      1.0        1
      79.001      196.325      1.0        1
     136.042      197.154      1.0        1
     193.078      197.984      1.0        1
     250.111      198.816      1.0        1
     307.139      199.648      1.0        1
       4.163      200.482      1.0        1
      61.183      201.318      1.0        1
     118.198      202.154      1.0        1
     175.209      202.992      1.0        1
     232.216      203.831      1.0        1
     289.219      204.671      1.0        1
     346.217      205.513      1.0        1
      43.210      206.356      1.0        1
     100.199      207.200      1.0        1
     157.184      208.046      1.0        1
     214.164      208.892      1.0        1
     271.139      209.740      1.0        1
     328.110      210.589      1.0        1
      25.076      211.440      1.0        1
      82.037      212.291      1.0        1
     138.994      213.144      1.0        1
     195.946      213.998      1.0        1
     252.893      214.854      1.0        1
     309.835      215.710      1.0        1
       6.772      216.568      1.0        1
      63.705      217.427      1.0        1
     120.632      218.287      1.0        1
     177.554      219.149      1.0        1
     234.472      220.011      1.0        1
     291.384      220.875      1.0        1
     348.291      221.740      1.0        1
      45.193      222.606      1.0        1
     102.089      223.474      1.0        1
     158.981      224.342      1.0        1
     215.867      225.212      1.0        1
     272.748      226.083      1.0        1
     329.623      226.955      1.0        1
      26.493      227.828      1.0        1
      83.357      228.703      1.0        1
     140.216      229.579      1.0        1
     197.070      230.455      1.0        1
     253.918      231.333      1.0        1
     310.760      232.212      1.0        1
       7.596      233.093      1.0        1
      64.427      233.974      1.0        1
     121.252      234.856      1.0        1
     178.071      235.740      1.0        1
     234.885      236.625      1.0        1
     291.692      237.511      1.0        1
     348.494      238.398      1.0        1
      45.289      239.286      1.0        1
     102.079      240.175      1.0        1
     158.862      241.066      1.0        1
     215.640      241.957      1.0        1
     272.411      242.850      1.0        1
     329.176      243.743      1.0        1
      25.935      244.638      1.0        1
      82.687      245.534      1.0        1
     139.433      246.431      1.0        1
     196.173      247.329      1.0        1
     252.906      248.228      1.0        1
     309.633      249.129      1.0        1
       6.353      250.030      1.0        1
      63.067      250.932      1.0        1
     119.774      251.836      1.0        1
     176.474      252.740      1.0        1
     233.168      253.646      1.0        1
     289.855      254.552      1.0        1
     346.535      255.460      1.0        1
      43.208      256.369      1.0        1
      99.875      257.278      1.0        1
     156.534      258.189      1.0        1
     213.186      259.101      1.0        1
     269.831      260.014      1.0        1
     326.470      260.928      1.0        1
      23.101      261.842      1.0        1
      79.724      262.758      1.0        1
     136.341      263.675      1.0        1
     192.950      264.593      1.0        1
     249.552      265.512      1.0        1
     306.146      266.432      1.0        1
       2.733      267.353      1.0        1
      59.313      268.275      1.0        1
     115.885      269.198      1.0        1
     172.449      270.122      1.0        1
     229.006      271.046      1.0        1
     285.555      271.972      1.0        1
     342.096      272.899      1.0        1
      38.629      273.827      1.0        1
      95.154      274.756      1.0        1
     151.672      275.685      1.0        1
     208.181      276.616      1.0        1
     264.683      277.548      1.0        1
     321.176      278.480      1.0        1
      17.661      279.414      1.0        1
      74.138      280.348      1.0        1
     130.607      281.284      1.0        1
     187.067      282.220      1.0        1
     243.519      283.157      1.0        1
     299.963      284.095      1.0        1
     356.398      285.034      1.0        1
      52.824      285.974      1.0        1
     109.242      286.915      1.0        1
     165.652      287.857      1.0        1
     222.052      288.800      1.0        1
     278.444      289.743      1.0        1
     334.827      290.688      1.0        1
      31.201      291.633      1.0        1
      87.567      292.580      1.0        1
     143.923      293.527      1.0        1
     200.270      294.475      1.0        1
     256.608      295.424      1.0        1
     312.937      296.374      1.0        1
       9.257      297.324      1.0        1
      65.567      298.276      1.0        1
     121.868      299.228      1.0        1
     178.160      300.181      1.0        1
     234.442      301.136      1.0        1
     290.714      302.090      1.0        1
     346.977      303.046      1.0        1
      43.231      304.003      1.0        1
      99.474      304.960      1.0        1
     155.708      305.919      1.0        1
     211.932      306.878      1.0        1
     268.147      307.838      1.0        1
     324.351      308.798      1.0        1
      20.545      309.760      1.0        1
      76.729      310.722      1.0        1
     132.903      311.685      1.0        1
     189.067      312.649      1.0        1
     245.220      313.614      1.0        1
     301.363      314.580      1.0        1
     357.496      315.546      1.0        1
      53.619      316.513      1.0        1
     109.730      317.481      1.0        1
     165.832      318.449      1.0        1
     221.922      319.419      1.0        1
     278.002      320.389      1.0        1
     334.071      321.360      1.0        1
      30.129      322.332      1.0        1
      86.177      323.304      1.0        1
     142.213      324.277      1.0        1
     198.238      325.251      1.0        1
     254.253      326.226      1.0        1
     310.256      327.201      1.0        1
       6.247      328.177      1.0        1
      62.228      329.154      1.0        1
     118.197      330.132      1.0        1
     174.154      331.110      1.0        1
     230.101      332.089      1.0        1
     286.035      333.069      1.0        1
     341.958      334.049      1.0        1
      37.869      335.031      1.0        1
      93.769      336.012      1.0        1
     149.656      336.995      1.0        1
     205.532      337.978      1.0        1
     261.395      338.962      1.0        1
     317.247      339.947      1.0        1
      13.087      340.932      1.0        1
      68.914      341.918      1.0        1
     124.729      342.904      1.0        1
     180.531      343.892      1.0        1
     236.322      344.879      1.0        1
     292.099      345.868      1.0        1
     347.864      346.857      1.0        1
      43.617      347.847      1.0        1
      99.357      348.837      1.0        1
     155.084      349.829      1.0        1
     210.798      350.820      1.0        1
     266.499      351.813      1.0        1
     322.188      352.806      1.0        1
      17.863      353.799      1.0        1
      73.525      354.794      1.0        1
     129.174      355.788      1.0        1
     184.810      356.784      1.0        1
     240.432      357.780      1.0        1
     296.041      358.776      1.0        1
     351.636      359.774      1.0        1
      47.218      360.772      1.0        1
     102.786      361.770      1.0        1
     158.340      362.769      1.0        1
     213.881      363.768      1.0        1
     269.407      364.769      1.0        1
     324.920      365.769      1.0        1
      20.418      366.771      1.0        1
      75.903      367.772      1.0        1
     131.373      368.775      1.0        1
     186.829      369.778      1.0        1
     242.271      370.781      1.0        1
     297.698      371.785      1.0        1
     353.111      372.790      1.0        1
      48.509      373.795      1.0        1
     103.893      374.800      1.0        1
     159.262      375.806      1.0        1
     214.616      376.813      1.0        1
     269.955      377.820      1.0        1
     325.279      378.828      1.0        1
      20.588      379.836      1.0        1
      75.882      380.844      1.0        1
     131.160      381.854      1.0        1
     186.424      382.863      1.0        1
     241.672      383.873      1.0        1
     296.904      384.884      1.0        1
     352.121      385.895      1.0        1
      47.323      386.906      1.0        1
     102.508      387.918      1.0        1
     157.678      388.931      1.0        1
     212.832      389.944      1.0        1
     267.970      390.957      1.0        1
     323.092      391.971      1.0        1
      18.198      392.985      1.0        1
      73.288      394.000      1.0        1
     128.362      395.015      1.0        1
     183.419      396.031      1.0        1
     238.459      397.047      1.0        1
     293.483      398.063      1.0        1
     348.491      399.080      1.0        1
      43.482      400.097      1.0        1
      98.456      401.115      1.0        1
     153.413      402.133      1.0        1
     208.353      403.152      1.0        1
     263.276      404.171      1.0        1
     318.182      405.190      1.0        1
      13.071      406.210      1.0        1
      67.942      407.230      1.0        1
     122.796      408.250      1.0        1
     177.633      409.271      1.0        1
     232.452      410.292      1.0        1
     287.253      411.314      1.0        1
     342.036      412.336      1.0        1
      36.802      413.358      1.0        1
      91.550      414.380      1.0        1
     146.280      415.403      1.0        1
     200.992      416.427      1.0        1
     255.685      417.450      1.0        1
     310.360      418.474      1.0        1
       5.017      419.499      1.0        1
      59.656      420.523      1.0        1
     114.276      421.548      1.0        1
     168.877      422.573      1.0        1
     223.460      423.599      1.0        1
     278.023      424.625      1.0        1
     332.568      425.651      1.0        1
      27.094      426.678      1.0        1
      81.601      427.704      1.0        1
     136.088      428.731      1.0        1
     190.557      429.759      1.0        1
     245.006      430.786      1.0        1
     299.435      431.814      1.0        1
     353.845      432.843      1.0        1
      48.235      433.871      1.0        1
     102.606      434.900      1.0        1
     156.956      435.929      1.0        1
     211.287      436.958      1.0        1
     265.598      437.987      1.0        1
     319.889      439.017      1.0        1
      14.159      440.047      1.0        1
      68.409      441.077      1.0        1
     122.639      442.108      1.0        1
     176.848      443.138      1.0        1
     231.037      444.169      1.0        1
     285.205      445.200      1.0        1
     339.352      446.232      1.0        1
      33.478      447.263      1.0        1
      87.584      448.295      1.0        1
     141.668      449.327      1.0        1
     195.731      450.359      1.0        1
     249.773      451.391      1.0        1
     303.794      452.423      1.0        1
     357.793      453.456      1.0        1
      51.770      454.489      1.0        1
     105.726      455.522      1.0        1
     159.660      456.555      1.0        1
     213.572      457.588      1.0        1
     267.463      458.622      1.0        1
     321.331      459.656      1.0        1
      15.177      460.689      1.0        1
      69.001      461.723      1.0        1
     122.802      462.757      1.0        1
     176.581      463.792      1.0        1
     230.338      464.826      1.0        1
     284.072      465.860      1.0        1
     337.783      466.895      1.0        1
      31.471      467.930      1.0        1
      85.136      468.965      1.0        1
     138.779      469.999      1.0        1
     192.398      471.034      1.0        1
     245.994      472.070      1.0        1
     299.566      473.105      1.0        1
     353.115      474.140      1.0        1
      46.641      475.176      1.0        1
     100.142      476.211      1.0        1
     153.620      477.247      1.0        1
     207.075      478.282      1.0        1
     260.505      479.318      1.0        1
     313.911      480.354      1.0        1
       7.293      481.389      1.0        1
      60.651      482.425      1.0        1
     113.984      483.461      1.0        1
     167.293      484.497      1.0        1
     220.577      485.533      1.0        1
     273.836      486.569      1.0        1
     327.071      487.605      1.0        1
      20.281      488.641      1.0        1
      73.465      489.678      1.0        1
     126.625      490.714      1.0        1
     179.759      491.750      1.0        1
     232.868      492.786      1.0        1
     285.952      493.822      1.0        1
     339.010      494.858      1.0        1
      32.042      495.894      1.0        1
      85.049      496.931      1.0        1
     138.030      497.967      1.0        1
     190.984      499.003      1.0        1
     243.913      500.039      1.0        1
     296.815      501.075      1.0        1
     349.692      502.111      1.0        1
      42.541      503.147      1.0        1
      95.364      504.183      1.0        1
     148.161      505.219      1.0        1
     200.931      506.255      1.0        1
     253.674      507.290      1.0        1
     306.390      508.326      1.0        1
     359.079      509.362      1.0        1
      51.740      510.397      1.0        1
     104.375      511.433      1.0        1
     156.982      512.468      1.0        1
     209.561      513.504      1.0        1
     262.113      514.539      1.0        1
     314.637      515.574      1.0        1
       7.134      516.609      1.0        1
      59.602      517.644      1.0        1
     112.042      518.679      1.0        1
     164.454      519.714      1.0        1
     216.838      520.748      1.0        1
     269.193      521.783      1.0        1
     321.520      522.817      1.0        1
      13.819      523.852      1.0        1
      66.088      524.886      1.0        1
     118.329      525.920      1.0        1
     170.540      526.954      1.0        1
     222.723      527.987      1.0        1
     274.876      529.021      1.0        1
     327.000      530.054      1.0        1
      19.095      531.088      1.0        1
      71.160      532.121      1.0        1
     123.195      533.154      1.0        1
     175.201      534.186      1.0        1
     227.176      535.219      1.0        1
     279.122      536.251      1.0        1
     331.037      537.284      1.0        1
      22.923      538.316      1.0        1
      74.778      539.347      1.0        1
     126.602      540.379      1.0        1
     178.396      541.410      1.0        1
     230.159      542.442      1.0        1
     281.892      543.473      1.0        1
     333.593      544.503      1.0        1
      25.263      545.534      1.0        1
      76.903      546.564      1.0        1
     128.511      547.594      1.0        1
     180.087      548.624      1.0        1
     231.632      549.654      1.0        1
     283.145      550.683      1.0        1
     334.627      551.712      1.0        1
      26.077      552.741      1.0        1
      77.494      553.769      1.0        1
     128.880      554.798      1.0        1
     180.233      555.826      1.0        1
     231.554      556.854      1.0        1
     282.843      557.881      1.0        1
     334.098      558.908      1.0        1
      25.322      559.935      1.0        1
      76.512      560.962      1.0        1
     127.669      561.988      1.0        1
     178.794      563.014      1.0        1
     229.885      564.040      1.0        1
     280.942      565.065      1.0        1
     331.967      566.091      1.0        1
      22.957      567.115      1.0        1
      73.914      568.140      1.0        1
     124.838      569.164      1.0        1
     175.727      570.188      1.0        1
     226.582      571.211      1.0        1
     277.403      572.234      1.0        1
     328.190      573.257      1.0        1
      18.943      574.280      1.0        1
      69.661      575.302      1.0        1
     120.344      576.323      1.0        1
     170.992      577.345      1.0        1
     221.606      578.366      1.0        1
     272.184      579.386      1.0        1
     322.727      580.407      1.0        1
      13.235      581.426      1.0        1
      63.708      582.446      1.0        1
     114.145      583.465      1.0        1
     164.547      584.484      1.0        1
     214.912      585.502      1.0        1
     265.242      586.520      1.0        1
     315.536      587.537      1.0        1
       5.793      588.554      1.0        1
      56.015      589.571      1.0        1
     106.200      590.587      1.0        1
     156.348      591.603      1.0        1
     206.460      592.619      1.0        1
     256.535      593.634      1.0        1
     306.573      594.648      1.0        1
     356.574      595.662      1.0        1
      46.538      596.676      1.0        1
      96.464      597.689      1.0        1
     146.354      598.702      1.0        1
     196.205      599.714      1.0        1
     246.019      600.726      1.0        1
     295.796      601.737      1.0        1
     345.534      602.748      1.0        1
      35.234      603.758      1.0        1
      84.896      604.768      1.0        1
     134.520      605.777      1.0        1
     184.105      606.786      1.0        1
     233.652      607.795      1.0        1
     283.160      608.802      1.0        1
     332.630      609.810      1.0        1
      22.060      610.817      1.0        1
      71.451      611.823      1.0        1
     120.803      612.829      1.0        1
     170.116      613.834      1.0        1
     219.389      614.839      1.0        1
     268.623      615.843      1.0        1
     317.817      616.847      1.0        1
       6.971      617.850      1.0        1
      56.086      618.853      1.0        1
     105.160      619.855      1.0        1
     154.194      620.856      1.0        1
     203.187      621.857      1.0        1
     252.140      622.858      1.0        1
     301.053      623.858      1.0        1
     349.925      624.857      1.0        1
      38.755      625.856      1.0        1
      87.545      626.854      1.0        1
     136.294      627.851      1.0        1
     185.001      628.848      1.0        1
     233.667      629.844      1.0        1
     282.292      630.840      1.0        1
     330.874      631.835      1.0        1
      19.415      632.830      1.0        1
      67.914      633.824      1.0        1
     116.371      634.817      1.0        1
     164.786      635.810      1.0        1
     213.159      636.802      1.0        1
     261.489      637.793      1.0        1
     309.776      638.784      1.0        1
     358.021      639.774      1.0        1
      46.223      640.764      1.0        1
      94.382      641.753      1.0        1
     142.497      642.741      1.0        1
     190.570      643.728      1.0        1
     238.599      644.715      1.0        1
     286.585      645.702      1.0        1
     334.527      646.687      1.0        1
      22.425      647.672      1.0        1
      70.279      648.656      1.0        1
     118.089      649.640      1.0        1
     165.855      650.623      1.0        1
     213.577      651.605      1.0        1
     261.254      652.586      1.0        1
     308.887      653.567      1.0        1
     356.475      654.547      1.0        1
      44.018      655.527      1.0        1
      91.516      656.505      1.0        1
     138.969      657.483      1.0        1
     186.377      658.460      1.0        1
     233.740      659.437      1.0        1
     281.056      660.413      1.0        1
     328.328      661.388      1.0        1
      15.553      662.362      1.0        1
      62.733      663.336      1.0        1
     109.866      664.308      1.0        1
     156.953      665.280      1.0        1
     203.994      666.252      1.0        1
     250.989      667.222      1.0        1
     297.936      668.192      1.0        1
     344.838      669.161      1.0        1
      31.692      670.129      1.0        1
      78.499      671.097      1.0        1
     125.259      672.064      1.0        1
     171.972      673.029      1.0        1
     218.637      673.995      1.0        1
     265.255      674.959      1.0        1
     311.825      675.923      1.0        1
     358.347      676.885      1.0        1
      44.822      677.847      1.0        1
      91.248      678.808      1.0        1
     137.626      679.769      1.0        1
     183.956      680.728      1.0        1
     230.237      681.687      1.0        1
     276.469      682.645      1.0        1
     322.653      683.602      1.0        1
       8.788      684.558      1.0        1
      54.874      685.513      1.0        1
     100.910      686.468      1.0        1
     146.898      687.421      1.0        1
     192.835      688.374      1.0        1
     238.724      689.326      1.0        1
     284.562      690.277      1.0        1
     330.351      691.228      1.0        1
      16.089      692.177      1.0        1
      61.778      693.125      1.0        1
     107.416      694.073      1.0        1
     153.004      695.020      1.0        1
     198.541      695.966      1.0        1
     244.027      696.911      1.0        1
     289.463      697.855      1.0        1
     334.848      698.798      1.0        1
      20.181      699.740      1.0        1
      65.463      700.681      1.0        1
     110.694      701.622      1.0        1
     155.874      702.561      1.0        1
     201.001      703.500      1.0        1
     246.077      704.438      1.0        1
     291.101      705.375      1.0        1
     336.073      706.310      1.0        1
      20.993      707.245      1.0        1
      65.860      708.179      1.0        1
     110.675      709.112      1.0        1
     155.437      710.044      1.0        1
     200.147      710.976      1.0        1
     244.803      711.906      1.0        1
     289.407      712.835      1.0        1
     333.957      713.763      1.0        1
      18.454      714.691      1.0        1
      62.898      715.617      1.0        1
     107.288      716.542      1.0        1
     151.624      717.467      1.0        1
     195.907      718.390      1.0        1
     240.135      719.312      1.0        1
     284.309      720.234      1.0        1
     328.429      721.154      1.0        1
      12.494      722.074      1.0        1
      56.505      722.992      1.0        1
     100.462      723.910      1.0        1
     144.363      724.826      1.0        1
     188.209      725.741      1.0        1
     232.001      726.656      1.0        1
     275.737      727.569      1.0        1
     319.417      728.481      1.0        1
       3.042      729.393      1.0        1
      46.612      730.303      1.0        1
      90.125      731.212      1.0        1
     133.583      732.120      1.0        1
     176.984      733.027      1.0        1
     220.330      733.933      1.0        1
     263.619      734.838      1.0        1
     306.851      735.742      1.0        1
     350.027      736.645      1.0        1
      33.146      737.547      1.0        1
      76.208      738.448      1.0        1
     119.213      739.348      1.0        1
     162.161      740.246      1.0        1
     205.051      741.144      1.0        1
     247.884      742.040      1.0        1
     290.659      742.935      1.0        1
     333.377      743.830      1.0        1
      16.037      744.723      1.0        1
      58.638      745.615      1.0        1
     101.182      746.506      1.0        1
     143.667      747.396      1.0        1
     186.094      748.284      1.0        1
     228.462      749.172      1.0        1
     270.771      750.058      1.0        1
     313.021      750.944      1.0        1
     355.213      751.828      1.0        1
      37.345      752.711      1.0        1
      79.418      753.593      1.0        1
     121.432      754.474      1.0        1
     163.386      755.354      1.0        1
     205.280      756.232      1.0        1
     247.115      757.109      1.0        1
     288.889      757.986      1.0        1
     330.604      758.861      1.0        1
      12.258      759.734      1.0        1
      53.852      760.607      1.0        1
      95.385      761.479      1.0        1
     136.857      762.349      1.0        1
     178.269      763.218      1.0        1
     219.620      764.086      1.0        1
     260.909      764.953      1.0        1
     302.138      765.819      1.0        1
     343.305      766.683      1.0        1
      24.410      767.546      1.0        1
      65.454      768.408      1.0        1
     106.436      769.269      1.0        1
     147.357      770.129      1.0        1
     188.215      770.987      1.0        1
     229.011      771.844      1.0        1
     269.744      772.700      1.0        1
     310.416      773.555      1.0        1
     351.024      774.409      1.0        1
      31.570      775.261      1.0        1
      72.053      776.112      1.0        1
     112.473      776.962      1.0        1
     152.829      777.810      1.0        1
     193.123      778.657      1.0        1
     233.353      779.504      1.0        1
     273.519      780.348      1.0        1
     313.622      781.192      1.0        1
     353.660      782.034      1.0        1
      33.635      782.875      1.0        1
      73.546      783.715      1.0        1
     113.392      784.553      1.0        1
     153.174      785.390      1.0        1
     192.892      786.226      1.0        1
     232.544      787.061      1.0        1
     272.132      787.894      1.0        1
     311.655      788.726      1.0        1
     351.113      789.557      1.0        1
      30.506      790.387      1.0        1
      69.833      791.215      1.0        1
     109.095      792.041      1.0        1
     148.291      792.867      1.0        1
     187.422      793.691      1.0        1
     226.486      794.514      1.0        1
     265.485      795.336      1.0        1
     304.417      796.156      1.0        1
     343.283      796.975      1.0        1
      22.083      797.792      1.0        1
      60.816      798.609      1.0        1
      99.482      799.424      1.0        1
     138.081      800.237      1.0        1
     176.613      801.049      1.0        1
     215.079      801.860      1.0        1
     253.476      802.670      1.0        1
     291.807      803.478      1.0        1
     330.070      804.285      1.0        1
       8.265      805.090      1.0        1
      46.393      805.894      1.0        1
      84.452      806.697      1.0        1
     122.444      807.498      1.0        1
     160.367      808.298      1.0        1
     198.222      809.097      1.0        1
     236.008      809.894      1.0        1
     273.726      810.690      1.0        1
     311.375      811.484      1.0        1
     348.955      812.277      1.0        1
      26.466      813.069      1.0        1
      63.908      813.859      1.0        1
     101.280      814.648      1.0        1
     138.583      815.435      1.0        1
     175.817      816.221      1.0        1
     212.981      817.006      1.0        1
     250.075      817.789      1.0        1
     287.099      818.571      1.0        1
     324.053      819.351      1.0        1
       0.937      820.130      1.0        1
      37.750      820.907      1.0        1
      74.493      821.683      1.0        1
     111.165      822.458      1.0        1
     147.766      823.231      1.0        1
     184.297      824.002      1.0        1
     220.757      824.773      1.0        1
     257.145      825.541      1.0        1
     293.462      826.309      1.0        1
     329.708      827.075      1.0        1
       5.882      827.839      1.0        1
      41.984      828.602      1.0        1
      78.014      829.363      1.0        1
     113.973      830.123      1.0        1
     149.859      830.882      1.0        1
     185.674      831.639      1.0        1
     221.416      832.394      1.0        1
     257.085      833.148      1.0        1
     292.682      833.901      1.0        1
     328.206      834.652      1.0        1
       3.657      835.401      1.0        1
      39.035      836.149      1.0        1
      74.340      836.896      1.0        1
     109.572      837.641      1.0        1
     144.730      838.385      1.0        1
     179.815      839.127      1.0        1
     214.826      839.867      1.0        1
     249.763      840.606      1.0        1
     284.627      841.343      1.0        1
     319.416      842.079      1.0        1
     354.131      842.814      1.0        1
      28.772      843.547      1.0        1
      63.339      844.278      1.0        1
      97.831      845.008      1.0        1
     132.248      845.736      1.0        1
     166.590      846.463      1.0        1
     200.858      847.188      1.0        1
     235.050      847.911      1.0        1
     269.167      848.633      1.0        1
     303.209      849.354      1.0        1
     337.175      850.073      1.0        1
      11.066      850.790      1.0        1
      44.881      851.506      1.0        1
      78.620      852.220      1.0        1
     112.283      852.933      1.0        1
     145.870      853.644      1.0        1
     179.381      854.353      1.0        1
     212.815      855.061      1.0        1
     246.173      855.768      1.0        1
     279.454      856.472      1.0        1
     312.659      857.176      1.0        1
     345.787      857.877      1.0        1
      18.837      858.577      1.0        1
      51.811      859.275      1.0        1
      84.708      859.972      1.0        1
     117.527      860.667      1.0        1
     150.268      861.361      1.0        1
     182.932      862.053      1.0        1
     215.518      862.743      1.0        1
     248.027      863.432      1.0        1
     280.457      864.119      1.0        1
     312.809      864.804      1.0        1
     345.083      865.488      1.0        1
      17.279      866.170      1.0        1
      49.396      866.850      1.0        1
      81.435      867.529      1.0        1
     113.394      868.207      1.0        1
     145.275      868.882      1.0        1
     177.077      869.556      1.0        1
     208.800      870.228      1.0        1
     240.444      870.899      1.0        1
     272.008      871.568      1.0        1
     303.493      872.235      1.0        1
     334.899      872.901      1.0        1
       6.224      873.565      1.0        1
      37.470      874.227      1.0        1
      68.636      874.888      1.0        1
      99.722      875.547      1.0        1
     130.727      876.204      1.0        1
     161.652      876.860      1.0        1
     192.497      877.514      1.0        1
     223.262      878.166      1.0        1
     253.945      878.817      1.0        1
     284.548      879.465      1.0        1
     315.070      880.113      1.0        1
     345.511      880.758      1.0        1
      15.871      881.402      1.0        1
      46.149      882.044      1.0        1
      76.346      882.684      1.0        1
     106.462      883.323      1.0        1
     136.496      883.960      1.0        1
     166.448      884.595      1.0        1
     196.319      885.229      1.0        1
     226.107      885.861      1.0        1
     255.813      886.491      1.0        1
     285.437      887.119      1.0        1
     314.979      887.746      1.0        1
     344.439      888.371      1.0        1
      13.816      888.994      1.0        1
      43.110      889.615      1.0        1
      72.321      890.235      1.0        1
     101.450      890.853      1.0        1
     130.495      891.469      1.0        1
     159.457      892.084      1.0        1
     188.337      892.696      1.0        1
     217.132      893.307      1.0        1
     245.845      893.916      1.0        1
     274.473      894.524      1.0        1
     303.018      895.130      1.0        1
     331.479      895.734      1.0        1
     359.857      896.336      1.0        1
      28.150      896.936      1.0        1
      56.359      897.535      1.0        1
      84.484      898.132      1.0        1
     112.524      898.727      1.0        1
     140.480      899.320      1.0        1
     168.352      899.912      1.0        1
     196.138      900.501      1.0        1
     223.840      901.089      1.0        1
     251.457      901.675      1.0        1
     278.989      902.260      1.0        1
     306.436      902.842      1.0        1
     333.797      903.423      1.0        1
       1.073      904.002      1.0        1
      28.264      904.579      1.0        1
      55.369      905.155      1.0        1
      82.388      905.728      1.0        1
     109.322      906.300      1.0        1
     136.169      906.870      1.0        1
     162.931      907.438      1.0        1
     189.606      908.004      1.0        1
     216.195      908.569      1.0        1
     242.698      909.132      1.0        1
     269.115      909.692      1.0        1
     295.445      910.251      1.0        1
     321.688      910.809      1.0        1
     347.844      911.364      1.0        1
      13.914      911.918      1.0        1
      39.896      912.469      1.0        1
      65.792      913.019      1.0        1
      91.600      913.567      1.0        1
     117.321      914.113      1.0        1
     142.955      914.658      1.0        1
     168.501      915.200      1.0        1
     193.959      915.741      1.0        1
     219.330      916.279      1.0        1
     244.613      916.816      1.0        1
     269.808      917.351      1.0        1
     294.915      917.885      1.0        1
     319.934      918.416      1.0        1
     344.865      918.945      1.0        1
       9.707      919.473      1.0        1
      34.461      919.999      1.0        1
      59.126      920.523      1.0        1
      83.703      921.045      1.0        1
     108.191      921.565      1.0        1
     132.590      922.083      1.0        1
     156.901      922.599      1.0        1
     181.122      923.114      1.0        1
     205.254      923.626      1.0        1
     229.297      924.137      1.0        1
     253.251      924.646      1.0        1
     277.115      925.153      1.0        1
     300.889      925.658      1.0        1
     324.574      926.161      1.0        1
     348.170      926.662      1.0        1
      11.675      927.162      1.0        1
      35.091      927.659      1.0        1
      58.416      928.154      1.0        1
      81.652      928.648      1.0        1
     104.797      929.140      1.0        1
     127.852      929.630      1.0        1
     150.817      930.117      1.0        1
     173.691      930.603      1.0        1
     196.474      931.087      1.0        1
     219.167      931.570      1.0        1
     241.769      932.050      1.0        1
     264.280      932.528      1.0        1
     286.701      933.004      1.0        1
     309.030      933.479      1.0        1
     331.268      933.951      1.0        1
     353.415      934.422      1.0        1
      15.470      934.890      1.0        1
      37.435      935.357      1.0        1
      59.307      935.822      1.0        1
      81.088      936.285      1.0        1
     102.778      936.745      1.0        1
     124.375      937.204      1.0        1
     145.881      937.661      1.0        1
     167.295      938.116      1.0        1
     188.616      938.569      1.0        1
     209.846      939.020      1.0        1
     230.983      939.470      1.0        1
     252.028      939.917      1.0        1
     272.981      940.362      1.0        1
     293.841      940.805      1.0        1
     314.608      941.247      1.0        1
     335.283      941.686      1.0        1
     355.866      942.123      1.0        1
      16.355      942.559      1.0        1
      36.751      942.992      1.0        1
      57.055      943.424      1.0        1
      77.265      943.853      1.0        1
      97.382      944.281      1.0        1
     117.406      944.706      1.0        1
     137.337      945.130      1.0        1
     157.174      945.551      1.0        1
     176.917      945.971      1.0        1
     196.567      946.389      1.0        1
     216.124      946.804      1.0        1
     235.586      947.218      1.0        1
     254.955      947.629      1.0        1
     274.230      948.039      1.0        1
     293.411      948.447      1.0        1
     312.498      948.852      1.0        1
     331.490      949.256      1.0        1
     350.389      949.658      1.0        1
       9.193      950.057      1.0        1
      27.902      950.455      1.0        1
      46.518      950.851      1.0        1
      65.038      951.244      1.0        1
      83.464      951.636      1.0        1
     101.795      952.026      1.0        1
     120.032      952.413      1.0        1
     138.173      952.799      1.0        1
     156.220      953.182      1.0        1
     174.172      953.564      1.0        1
     192.028      953.943      1.0        1
     209.790      954.321      1.0        1
     227.456      954.696      1.0        1
     245.026      955.070      1.0        1
     262.502      955.441      1.0        1
     279.882      955.811      1.0        1
     297.166      956.178      1.0        1
     314.355      956.543      1.0        1
     331.448      956.907      1.0        1
     348.445      957.268      1.0        1
       5.347      957.627      1.0        1
      22.152      957.985      1.0        1
      38.862      958.340      1.0        1
      55.475      958.693      1.0        1
      71.993      959.044      1.0        1
      88.414      959.393      1.0        1
     104.739      959.740      1.0        1
     120.967      960.085      1.0        1
     137.100      960.428      1.0        1
     153.135      960.769      1.0        1
     169.075      961.108      1.0        1
     184.917      961.444      1.0        1
     200.663      961.779      1.0        1
     216.312      962.112      1.0        1
     231.865      962.442      1.0        1
     247.320      962.771      1.0        1
     262.679      963.097      1.0        1
     277.940      963.422      1.0        1
     293.105      963.744      1.0        1
     308.172      964.064      1.0        1
     323.142      964.383      1.0        1
     338.015      964.699      1.0        1
     352.790      965.013      1.0        1
       7.469      965.325      1.0        1
      22.049      965.635      1.0        1
      36.532      965.943      1.0        1
      50.918      966.249      1.0        1
      65.206      966.552      1.0        1
      79.396      966.854      1.0        1
      93.489      967.154      1.0        1
     107.483      967.451      1.0        1
     121.380      967.746      1.0        1
     135.179      968.040      1.0        1
     148.880      968.331      1.0        1
     162.482      968.620      1.0        1
     175.987      968.907      1.0        1
     189.393      969.192      1.0        1
     202.702      969.475      1.0        1
     215.912      969.756      1.0        1
     229.023      970.035      1.0        1
     242.036      970.311      1.0        1
     254.951      970.586      1.0        1
     267.767      970.858      1.0        1
     280.485      971.129      1.0        1
     293.104      971.397      1.0        1
     305.624      971.663      1.0        1
     318.046      971.927      1.0        1
     330.368      972.189      1.0        1
     342.592      972.449      1.0        1
     354.717      972.707      1.0        1
       6.743      972.963      1.0        1
      18.670      973.216      1.0        1
      30.498      973.468      1.0        1
      42.227      973.717      1.0        1
      53.857      973.964      1.0        1
      65.388      974.209      1.0        1
      76.819      974.452      1.0        1
      88.151      974.693      1.0        1
      99.384      974.932      1.0        1
     110.517      975.169      1.0        1
     121.551      975.403      1.0        1
     132.485      975.636      1.0        1
     143.320      975.866      1.0        1
     154.055      976.094      1.0        1
     164.690      976.320      1.0        1
     175.226      976.544      1.0        1
     185.662      976.766      1.0        1
     195.998      976.986      1.0        1
     206.235      977.204      1.0        1
     216.371      977.419      1.0        1
     226.408      977.632      1.0        1
     236.345      977.844      1.0        1
     246.182      978.053      1.0        1
     255.918      978.260      1.0        1
     265.555      978.465      1.0        1
     275.091      978.667      1.0        1
     284.528      978.868      1.0        1
     293.864      979.067      1.0        1
     303.100      979.263      1.0        1
     312.235      979.457      1.0        1
     321.271      979.649      1.0        1
     330.206      979.839      1.0        1
     339.040      980.027      1.0        1
     347.774      980.213      1.0        1
     356.408      980.396      1.0        1
       4.941      980.578      1.0        1
      13.373      980.757      1.0        1
      21.705      980.934      1.0        1
      29.936      981.109      1.0        1
      38.067      981.282      1.0        1
      46.097      981.453      1.0        1
      54.026      981.621      1.0        1
      61.854      981.788      1.0        1
      69.582      981.952      1.0        1
      77.209      982.114      1.0        1
      84.735      982.274      1.0        1
      92.160      982.432      1.0        1
      99.484      982.588      1.0        1
     106.707      982.741      1.0        1
     113.829      982.893      1.0        1
     120.850      983.042      1.0        1
     127.770      983.189      1.0        1
     134.589      983.334      1.0        1
     141.307      983.477      1.0        1
     147.923      983.617      1.0        1
     154.439      983.756      1.0        1
     160.853      983.892      1.0        1
     167.166      984.027      1.0        1
     173.378      984.159      1.0        1
     179.488      984.288      1.0        1
     185.497      984.416      1.0        1
     191.405      984.542      1.0        1
     197.211      984.665      1.0        1
     202.916      984.787      1.0        1
     208.520      984.906      1.0        1
     214.022      985.023      1.0        1
     219.423      985.137      1.0        1
     224.722      985.250      1.0        1
     229.920      985.361      1.0        1
     235.016      985.469      1.0        1
     240.010      985.575      1.0        1
     244.903      985.679      1.0        1
     249.695      985.781      1.0        1
     254.384      985.881      1.0        1
     258.972      985.978      1.0        1
     263.459      986.074      1.0        1
     267.844      986.167      1.0        1
     272.127      986.258      1.0        1
     276.308      986.347      1.0        1
     280.388      986.434      1.0        1
     284.365      986.518      1.0        1
     288.242      986.601      1.0        1
     292.016      986.681      1.0        1
     295.688      986.759      1.0        1
     299.259      986.835      1.0        1
     302.728      986.909      1.0        1
     306.095      986.980      1.0        1
     309.360      987.050      1.0        1
     312.523      987.117      1.0        1
     315.584      987.182      1.0        1
     318.543      987.245      1.0        1
     321.401      987.306      1.0        1
     324.156      987.364      1.0        1
     326.810      987.421      1.0        1
     329.361      987.475      1.0        1
     331.811      987.527      1.0        1
     334.158      987.577      1.0        1
     336.404      987.625      1.0        1
     338.548      987.670      1.0        1
     340.589      987.713      1.0        1
     342.529      987.755      1.0        1
     344.366      987.794      1.0        1
     346.102      987.831      1.0        1
     347.735      987.865      1.0        1
     349.267      987.898      1.0        1
     350.696      987.928      1.0        1
     352.023      987.957      1.0        1
     353.248      987.983      1.0        1
     354.371      988.007      1.0        1
     355.392      988.028      1.0        1
     356.311      988.048      1.0        1
     357.128      988.065      1.0        1
     357.843      988.080      1.0        1
     358.456      988.093      1.0        1
     358.966      988.104      1.0        1
     359.375      988.113      1.0        1
     359.681      988.119      1.0        1
     359.885      988.124      1.0        1
     359.987      988.126      2.0        1
     359.885      988.124      1.0        1
     359.681      988.119      1.0        1
     359.375      988.113      1.0        1
     358.966      988.104      1.0        1
     358.456      988.093      1.0        1
     357.843      988.080      1.0        1
     357.128      988.065      1.0        1
     356.311      988.048      1.0        1
     355.392      988.028      1.0        1
     354.371      988.007      1.0        1
     353.248      987.983      1.0        1
     352.023      987.957      1.0        1
     350.696      987.928      1.0        1
     349.267      987.898      1.0        1
     347.735      987.865      1.0        1
     346.102      987.831      1.0        1
     344.366      987.794      1.0        1
     342.529      987.755      1.0        1
     340.589      987.713      1.0        1
     338.548      987.670      1.0        1
     336.404      987.625      1.0        1
     334.158      987.577      1.0        1
     331.811      987.527      1.0        1
     329.361      987.475      1.0        1
     326.810      987.421      1.0        1
     324.156      987.364      1.0        1
     321.401      987.306      1.0        1
     318.543      987.245      1.0        1
     315.584      987.182      1.0        1
     312.523      987.117      1.0        1
     309.360      987.050      1.0        1
     306.095      986.980      1.0        1
     302.728      986.909      1.0        1
     299.259      986.835      1.0        1
     295.688      986.759      1.0        1
     292.016      986.681      1.0        1
     288.242      986.601      1.0        1
     284.365      986.518      1.0        1
     280.388      986.434      1.0        1
     276.308      986.347      1.0        1
     272.127      986.258      1.0        1
     267.844      986.167      1.0        1
     263.459      986.074      1.0        1
     258.972      985.978      1.0        1
     254.384      985.881      1.0        1
     249.695      985.781      1.0        1
     244.903      985.679      1.0        1
     240.010      985.575      1.0        1
     235.016      985.469      1.0        1
     229.920      985.361      1.0        1
     224.722      985.250      1.0        1
     219.423      985.137      1.0        1
     214.022      985.023      1.0        1
     208.520      984.906      1.0        1
     202.916      984.787      1.0        1
     197.211      984.665      1.0        1
     191.405      984.542      1.0        1
     185.497      984.416      1.0        1
     179.488      984.288      1.0        1
     173.378      984.159      1.0        1
     167.166      984.027      1.0        1
     160.853      983.892      1.0        1
     154.439      983.756      1.0        1
     147.923      983.617      1.0        1
     141.307      983.477      1.0        1
     134.589      983.334      1.0        1
     127.770      983.189      1.0        1
     120.850      983.042      1.0        1
     113.829      982.893      1.0        1
     106.707      982.741      1.0        1
      99.484      982.588      1.0        1
      92.160      982.432      1.0        1
      84.735      982.274      1.0        1
      77.209      982.114      1.0        1
      69.582      981.952      1.0        1
      61.854      981.788      1.0        1
      54.026      981.621      1.0        1
      46.097      981.453      1.0        1
      38.067      981.282      1.0        1
      29.936      981.109      1.0        1
      21.705      980.934      1.0        1
      13.373      980.757      1.0        1
       4.941      980.578      1.0        1
     356.408      980.396      1.0        1
     347.774      980.213      1.0        1
     339.040      980.027      1.0        1
     330.206      979.839      1.0        1
     321.271      979.649      1.0        1
     312.235      979.457      1.0        1
     303.100      979.263      1.0        1
     293.864      979.067      1.0        1
     284.528      978.868      1.0        1
     275.091      978.667      1.0        1
     265.555      978.465      1.0        1
     255.918      978.260      1.0        1
     246.182      978.053      1.0        1
     236.345      977.844      1.0        1
     226.408      977.632      1.0        1
     216.371      977.419      1.0        1
     206.235      977.204      1.0        1
     195.998      976.986      1.0        1
     185.662      976.766      1.0        1
     175.226      976.544      1.0        1
     164.690      976.320      1.0        1
     154.055      976.094      1.0        1
     143.320      975.866      1.0        1
     132.485      975.636      1.0        1
     121.551      975.403      1.0        1
     110.517      975.169      1.0        1
      99.384      974.932      1.0        1
      88.151      974.693      1.0        1
      76.819      974.452      1.0        1
      65.388      974.209      1.0        1
      53.857      973.964      1.0        1
      42.227      973.717      1.0        1
      30.498      973.468      1.0        1
      18.670      973.216      1.0        1
       6.743      972.963      1.0        1
     354.717      972.707      1.0        1
     342.592      972.449      1.0        1
     330.368      972.189      1.0        1
     318.046      971.927      1.0        1
     305.624      971.663      1.0        1
     293.104      971.397      1.0        1
     280.485      971.129      1.0        1
     267.767      970.858      1.0        1
     254.951      970.586      1.0        1
     242.036      970.311      1.0        1
     229.023      970.035      1.0        1
     215.912      969.756      1.0        1
     202.702      969.475      1.0        1
     189.393      969.192      1.0        1
     175.987      968.907      1.0        1
     162.482      968.620      1.0        1
     148.880      968.331      1.0        1
     135.179      968.040      1.0        1
     121.380      967.746      1.0        1
     107.483      967.451      1.0        1
      93.489      967.154      1.0        1
      79.396      966.854      1.0        1
      65.206      966.552      1.0        1
      50.918      966.249      1.0        1
      36.532      965.943      1.0        1
      22.049      965.635      1.0        1
       7.469      965.325      1.0        1
     352.790      965.013      1.0        1
     338.015      964.699      1.0        1
     323.142      964.383      1.0        1
     308.172      964.064      1.0        1
     293.105      963.744      1.0        1
     277.940      963.422      1.0        1
     262.679      963.097      1.0        1
     247.320      962.771      1.0        1
     231.865      962.442      1.0        1
     216.312      962.112      1.0        1
     200.663      961.779      1.0        1
     184.917      961.444      1.0        1
     169.075      961.108      1.0        1
     153.135      960.769      1.0        1
     137.100      960.428      1.0        1
     120.967      960.085      1.0        1
     104.739      959.740      1.0        1
      88.414      959.393      1.0        1
      71.993      959.044      1.0        1
      55.475      958.693      1.0        1
      38.862      958.340      1.0        1
      22.152      957.985      1.0        1
       5.347      957.627      1.0        1
     348.445      957.268      1.0        1
     331.448      956.907      1.0        1
     314.355      956.543      1.0        1
     297.166      956.178      1.0        1
     279.882      955.811      1.0        1
     262.502      955.441      1.0        1
     245.026      955.070      1.0        1
     227.456      954.696      1.0        1
     209.790      954.321      1.0        1
     192.028      953.943      1.0        1
     174.172      953.564      1.0        1
     156.220      953.182      1.0        1
     138.173      952.799      1.0        1
     120.032      952.413      1.0        1
     101.795      952.026      1.0        1
      83.464      951.636      1.0        1
      65.038      951.244      1.0        1
      46.518      950.851      1.0        1
      27.902      950.455      1.0        1
       9.193      950.057      1.0        1
     350.389      949.658      1.0        1
     331.490      949.256      1.0        1
     312.498      948.852      1.0        1
     293.411      948.447      1.0        1
     274.230      948.039      1.0        1
     254.955      947.629      1.0        1
     235.586      947.218      1.0        1
     216.124      946.804      1.0        1
     196.567      946.389      1.0        1
     176.917      945.971      1.0        1
     157.174      945.551      1.0        1
     137.337      945.130      1.0        1
     117.406      944.706      1.0        1
      97.382      944.281      1.0        1
      77.265      943.853      1.0        1
      57.055      943.424      1.0        1
      36.751      942.992      1.0        1
      16.355      942.559      1.0        1
     355.866      942.123      1.0        1
     335.283      941.686      1.0        1
     314.608      941.247      1.0        1
     293.841      940.805      1.0        1
     272.981      940.362      1.0        1
     252.028      939.917      1.0        1
     230.983      939.470      1.0        1
     209.846      939.020      1.0        1
     188.616      938.569      1.0        1
     167.295      938.116      1.0        1
     145.881      937.661      1.0        1
     124.375      937.204      1.0        1
     102.778      936.745      1.0        1
      81.088      936.285      1.0        1
      59.307      935.822      1.0        1
      37.435      935.357      1.0        1
      15.470      934.890      1.0        1
     353.415      934.422      1.0        1
     331.268      933.951      1.0        1
     309.030      933.479      1.0        1
     286.701      933.004      1.0        1
     264.280      932.528      1.0        1
     241.769      932.050      1.0        1
     219.167      931.570      1.0        1
     196.474      931.087      1.0        1
     173.691      930.603      1.0        1
     150.817      930.117      1.0        1
     127.852      929.630      1.0        1
     104.797      929.140      1.0        1
      81.652      928.648      1.0        1
      58.416      928.154      1.0        1
      35.091      927.659      1.0        1
      11.675      927.162      1.0        1
     348.170      926.662      1.0        1
     324.574      926.161      1.0        1
     300.889      925.658      1.0        1
     277.115      925.153      1.0        1
     253.251      924.646      1.0        1
     229.297      924.137      1.0        1
     205.254      923.626      1.0        1
     181.122      923.114      1.0        1
     156.901      922.599      1.0        1
     132.590      922.083      1.0        1
     108.191      921.565      1.0        1
      83.703      921.045      1.0        1
      59.126      920.523      1.0        1
      34.461      919.999      1.0        1
       9.707      919.473      1.0        1
     344.865      918.945      1.0        1
     319.934      918.416      1.0        1
     294.915      917.885      1.0        1
     269.808      917.351      1.0        1
     244.613      916.816      1.0        1
     219.330      916.279      1.0        1
     193.959      915.741      1.0        1
     168.501      915.200      1.0        1
     142.955      914.658      1.0        1
     117.321      914.113      1.0        1
      91.600      913.567      1.0        1
      65.792      913.019      1.0        1
      39.896      912.469      1.0        1
      13.914      911.918      1.0        1
     347.844      911.364      1.0        1
     321.688      910.809      1.0        1
     295.445      910.251      1.0        1
     269.115      909.692      1.0        1
     242.698      909.132      1.0        1
     216.195      908.569      1.0        1
     189.606      908.004      1.0        1
     162.931      907.438      1.0        1
     136.169      906.870      1.0        1
     109.322      906.300      1.0        1
      82.388      905.728      1.0        1
      55.369      905.155      1.0        1
      28.264      904.579      1.0        1
       1.073      904.002      1.0        1
     333.797      903.423      1.0        1
     306.436      902.842      1.0        1
     278.989      902.260      1.0        1
     251.457      901.675      1.0        1
     223.840      901.089      1.0        1
     196.138      900.501      1.0        1
     168.352      899.912      1.0        1
     140.480      899.320      1.0        1
     112.524      898.727      1.0        1
      84.484      898.132      1.0        1
      56.359      897.535      1.0        1
      28.150      896.936      1.0        1
     359.857      896.336      1.0        1
     331.479      895.734      1.0        1
     303.018      895.130      1.0        1
     274.473      894.524      1.0        1
     245.845      893.916      1.0        1
     217.132      893.307      1.0        1
     188.337      892.696      1.0        1
     159.457      892.084      1.0        1
     130.495      891.469      1.0        1
     101.450      890.853      1.0        1
      72.321      890.235      1.0        1
      43.110      889.615      1.0        1
      13.816      888.994      1.0        1
     344.439      888.371      1.0        1
     314.979      887.746      1.0        1
     285.437      887.119      1.0        1
     255.813      886.491      1.0        1
     226.107      885.861      1.0        1
     196.319      885.229      1.0        1
     166.448      884.595      1.0        1
     136.496      883.960      1.0        1
     106.462      883.323      1.0        1
      76.346      882.684      1.0        1
      46.149      882.044      1.0        1
      15.871      881.402      1.0        1
     345.511      880.758      1.0        1
     315.070      880.113      1.0        1
     284.548      879.465      1.0        1
     253.945      878.817      1.0        1
     223.262      878.166      1.0        1
     192.497      877.514      1.0        1
     161.652      876.860      1.0        1
     130.727      876.204      1.0        1
      99.722      875.547      1.0        1
      68.636      874.888      1.0        1
      37.470      874.227      1.0        1
       6.224      873.565      1.0        1
     334.899      872.901      1.0        1
     303.493      872.235      1.0        1
     272.008      871.568      1.0        1
     240.444      870.899      1.0        1
     208.800      870.228      1.0        1
     177.077      869.556      1.0        1
     145.275      868.882      1.0        1
     113.394      868.207      1.0        1
      81.435      867.529      1.0        1
      49.396      866.850      1.0        1
      17.279      866.170      1.0        1
     345.083      865.488      1.0        1
     312.809      864.804      1.0        1
     280.457      864.119      1.0        1
     248.027      863.432      1.0        1
     215.518      862.743      1.0        1
     182.932      862.053      1.0        1
     150.268      861.361      1.0        1
     117.527      860.667      1.0        1
      84.708      859.972      1.0        1
      51.811      859.275      1.0        1
      18.837      858.577      1.0        1
     345.787      857.877      1.0        1
     312.659      857.176      1.0        1
     279.454      856.472      1.0        1
     246.173      855.768      1.0        1
     212.815      855.061      1.0        1
     179.381      854.353      1.0        1
     145.870      853.644      1.0        1
     112.283      852.933      1.0        1
      78.620      852.220      1.0        1
      44.881      851.506      1.0        1
      11.066      850.790      1.0        1
     337.175      850.073      1.0        1
     303.209      849.354      1.0        1
     269.167      848.633      1.0        1
     235.050      847.911      1.0        1
     200.858      847.188      1.0        1
     166.590      846.463      1.0        1
     132.248      845.736      1.0        1
      97.831      845.008      1.0        1
      63.339      844.278      1.0        1
      28.772      843.547      1.0        1
     354.131      842.814      1.0        1
     319.416      842.079      1.0        1
     284.627      841.343      1.0        1
     249.763      840.606      1.0        1
     214.826      839.867      1.0        1
     179.815      839.127      1.0        1
     144.730      838.385      1.0        1
     109.572      837.641      1.0        1
      74.340      836.896      1.0        1
      39.035      836.149      1.0        1
       3.657      835.401      1.0        1
     328.206      834.652      1.0        1
     292.682      833.901      1.0        1
     257.085      833.148      1.0        1
     221.416      832.394      1.0        1
     185.674      831.639      1.0        1
     149.859      830.882      1.0        1
     113.973      830.123      1.0        1
      78.014      829.363      1.0        1
      41.984      828.602      1.0        1
       5.882      827.839      1.0        1
     329.708      827.075      1.0        1
     293.462      826.309      1.0        1
     257.145      825.541      1.0        1
     220.757      824.773      1.0        1
     184.297      824.002      1.0        1
     147.766      823.231      1.0        1
     111.165      822.458      1.0        1
      74.493      821.683      1.0        1
      37.750      820.907      1.0        1
       0.937      820.130      1.0        1
     324.053      819.351      1.0        1
     287.099      818.571      1.0        1
     250.075      817.789      1.0        1
     212.981      817.006      1.0        1
     175.817      816.221      1.0        1
     138.583      815.435      1.0        1
     101.280      814.648      1.0        1
      63.908      813.859      1.0        1
      26.466      813.069      1.0        1
     348.955      812.277      1.0        1
     311.375      811.484      1.0        1
     273.726      810.690      1.0        1
     236.008      809.894      1.0        1
     198.222      809.097      1.0        1
     160.367      808.298      1.0        1
     122.444      807.498      1.0        1
      84.452      806.697      1.0        1
      46.393      805.894      1.0        1
       8.265      805.090      1.0        1
     330.070      804.285      1.0        1
     291.807      803.478      1.0        1
     253.476      802.670      1.0        1
     215.079      801.860      1.0        1
     176.613      801.049      1.0        1
     138.081      800.237      1.0        1
      99.482      799.424      1.0        1
      60.816      798.609      1.0        1
      22.083      797.792      1.0        1
     343.283      796.975      1.0        1
     304.417      796.156      1.0        1
     265.485      795.336      1.0        1
     226.486      794.514      1.0        1
     187.422      793.691      1.0        1
     148.291      792.867      1.0        1
     109.095      792.041      1.0        1
      69.833      791.215      1.0        1
      30.506      790.387      1.0        1
     351.113      789.557      1.0        1
     311.655      788.726      1.0        1
     272.132      787.894      1.0        1
     232.544      787.061      1.0        1
     192.892      786.226      1.0        1
     153.174      785.390      1.0        1
     113.392      784.553      1.0        1
      73.546      783.715      1.0        1
      33.635      782.875      1.0        1
     353.660      782.034      1.0        1
     313.622      781.192      1.0        1
     273.519      780.348      1.0        1
     233.353      779.504      1.0        1
     193.123      778.657      1.0        1
     152.829      777.810      1.0        1
     112.473      776.962      1.0        1
      72.053      776.112      1.0        1
      31.570      775.261      1.0        1
     351.024      774.409      1.0        1
     310.416      773.555      1.0        1
     269.744      772.700      1.0        1
     229.011      771.844      1.0        1
     188.215      770.987      1.0        1
     147.357      770.129      1.0        1
     106.436      769.269      1.0        1
      65.454      768.408      1.0        1
      24.410      767.546      1.0        1
     343.305      766.683      1.0        1
     302.138      765.819      1.0        1
     260.909      764.953      1.0        1
     219.620      764.086      1.0        1
     178.269      763.218      1.0        1
     136.857      762.349      1.0        1
      95.385      761.479      1.0        1
      53.852      760.607      1.0        1
      12.258      759.734      1.0        1
     330.604      758.861      1.0        1
     288.889      757.986      1.0        1
     247.115      757.109      1.0        1
     205.280      756.232      1.0        1
     163.386      755.354      1.0        1
     121.432      754.474      1.0        1
      79.418      753.593      1.0        1
      37.345      752.711      1.0        1
     355.213      751.828      1.0        1
     313.021      750.944      1.0        1
     270.771      750.058      1.0        1
     228.462      749.172      1.0        1
     186.094      748.284      1.0        1
     143.667      747.396      1.0        1
     101.182      746.506      1.0        1
      58.638      745.615      1.0        1
      16.037      744.723      1.0        1
     333.377      743.830      1.0        1
     290.659      742.935      1.0        1
     247.884      742.040      1.0        1
     205.051      741.144      1.0        1
     162.161      740.246      1.0        1
     119.213      739.348      1.0        1
      76.208      738.448      1.0        1
      33.146      737.547      1.0        1
     350.027      736.645      1.0        1
     306.851      735.742      1.0        1
     263.619      734.838      1.0        1
     220.330      733.933      1.0        1
     176.984      733.027      1.0        1
     133.583      732.120      1.0        1
      90.125      731.212      1.0        1
      46.612      730.303      1.0        1
       3.042      729.393      1.0        1
     319.417      728.481      1.0        1
     275.737      727.569      1.0        1
     232.001      726.656      1.0        1
     188.209      725.741      1.0        1
     144.363      724.826      1.0        1
     100.462      723.910      1.0        1
      56.505      722.992      1.0        1
      12.494      722.074      1.0        1
     328.429      721.154      1.0        1
     284.309      720.234      1.0        1
     240.135      719.312      1.0        1
     195.907      718.390      1.0        1
     151.624      717.467      1.0        1
     107.288      716.542      1.0        1
      62.898      715.617      1.0        1
      18.454      714.691      1.0        1
     333.957      713.763      1.0        1
     289.407      712.835      1.0        1
     244.803      711.906      1.0        1
     200.147      710.976      1.0        1
     155.437      710.044      1.0        1
     110.675      709.112      1.0        1
      65.860      708.179      1.0        1
      20.993      707.245      1.0        1
     336.073      706.310      1.0        1
     291.101      705.375      1.0        1
     246.077      704.438      1.0        1
     201.001      703.500      1.0        1
     155.874      702.561      1.0        1
     110.694      701.622      1.0        1
      65.463      700.681      1.0        1
      20.181      699.740      1.0        1
     334.848      698.798      1.0        1
     289.463      697.855      1.0        1
     244.027      696.911      1.0        1
     198.541      695.966      1.0        1
     153.004      695.020      1.0        1
     107.416      694.073      1.0        1
      61.778      693.125      1.0        1
      16.089      692.177      1.0        1
     330.351      691.228      1.0        1
     284.562      690.277      1.0        1
     238.724      689.326      1.0        1
     192.835      688.374      1.0        1
     146.898      687.421      1.0        1
     100.910      686.468      1.0        1
      54.874      685.513      1.0        1
       8.788      684.558      1.0        1
     322.653      683.602      1.0        1
     276.469      682.645      1.0        1
     230.237      681.687      1.0        1
     183.956      680.728      1.0        1
     137.626      679.769      1.0        1
      91.248      678.808      1.0        1
      44.822      677.847      1.0        1
     358.347      676.885      1.0        1
     311.825      675.923      1.0        1
     265.255      674.959      1.0        1
     218.637      673.995      1.0        1
     171.972      673.029      1.0        1
     125.259      672.064      1.0        1
      78.499      671.097      1.0        1
      31.692      670.129      1.0        1
     344.838      669.161      1.0        1
     297.936      668.192      1.0        1
     250.989      667.222      1.0        1
     203.994      666.252      1.0        1
     156.953      665.280      1.0        1
     109.866      664.308      1.0        1
      62.733      663.336      1.0        1
      15.553      662.362      1.0        1
     328.328      661.388      1.0        1
     281.056      660.413      1.0        1
     233.740      659.437      1.0        1
     186.377      658.460      1.0        1
     138.969      657.483      1.0        1
      91.516      656.505      1.0        1
      44.018      655.527      1.0        1
     356.475      654.547      1.0        1
     308.887      653.567      1.0        1
     261.254      652.586      1.0        1
     213.577      651.605      1.0        1
     165.855      650.623      1.0        1
     118.089      649.640      1.0        1
      70.279      648.656      1.0        1
      22.425      647.672      1.0        1
     334.527      646.687      1.0        1
     286.585      645.702      1.0        1
     238.599      644.715      1.0        1
     190.570      643.728      1.0        1
     142.497      642.741      1.0        1
      94.382      641.753      1.0        1
      46.223      640.764      1.0        1
     358.021      639.774      1.0        1
     309.776      638.784      1.0        1
     261.489      637.793      1.0        1
     213.159      636.802      1.0        1
     164.786      635.810      1.0        1
     116.371      634.817      1.0        1
      67.914      633.824      1.0        1
      19.415      632.830      1.0        1
     330.874      631.835      1.0        1
     282.292      630.840      1.0        1
     233.667      629.844      1.0        1
     185.001      628.848      1.0        1
     136.294      627.851      1.0        1
      87.545      626.854      1.0        1
      38.755      625.856      1.0        1
     349.925      624.857      1.0        1
     301.053      623.858      1.0        1
     252.140      622.858      1.0        1
     203.187      621.857      1.0        1
     154.194      620.856      1.0        1
     105.160      619.855      1.0        1
      56.086      618.853      1.0        1
       6.971      617.850      1.0        1
     317.817      616.847      1.0        1
     268.623      615.843      1.0        1
     219.389      614.839      1.0        1
     170.116      613.834      1.0        1
     120.803      612.829      1.0        1
      71.451      611.823      1.0        1
      22.060      610.817      1.0        1
     332.630      609.810      1.0        1
     283.160      608.802      1.0        1
     233.652      607.795      1.0        1
     184.105      606.786      1.0        1
     134.520      605.777      1.0        1
      84.896      604.768      1.0        1
      35.234      603.758      1.0        1
     345.534      602.748      1.0        1
     295.796      601.737      1.0        1
     246.019      600.726      1.0        1
     196.205      599.714      1.0        1
     146.354      598.702      1.0        1
      96.464      597.689      1.0        1
      46.538      596.676      1.0        1
     356.574      595.662      1.0        1
     306.573      594.648      1.0        1
     256.535      593.634      1.0        1
     206.460      592.619      1.0        1
     156.348      591.603      1.0        1
     106.200      590.587      1.0        1
      56.015      589.571      1.0        1
       5.793      588.554      1.0        1
     315.536      587.537      1.0        1
     265.242      586.520      1.0        1
     214.912      585.502      1.0        1
     164.547      584.484      1.0        1
     114.145      583.465      1.0        1
      63.708      582.446      1.0        1
      13.235      581.426      1.0        1
     322.727      580.407      1.0        1
     272.184      579.386      1.0        1
     221.606      578.366      1.0        1
     170.992      577.345      1.0        1
     120.344      576.323      1.0        1
      69.661      575.302      1.0        1
      18.943      574.280      1.0        1
     328.190      573.257      1.0        1
     277.403      572.234      1.0        1
     226.582      571.211      1.0        1
     175.727      570.188      1.0        1
     124.838      569.164      1.0        1
      73.914      568.140      1.0        1
      22.957      567.115      1.0        1
     331.967      566.091      1.0        1
     280.942      565.065      1.0        1
     229.885      564.040      1.0        1
     178.794      563.014      1.0        1
     127.669      561.988      1.0        1
      76.512      560.962      1.0        1
      25.322      559.935      1.0        1
     334.098      558.908      1.0        1
     282.843      557.881      1.0        1
     231.554      556.854      1.0        1
     180.233      555.826      1.0        1
     128.880      554.798      1.0        1
      77.494      553.769      1.0        1
      26.077      552.741      1.0        1
     334.627      551.712      1.0        1
     283.145      550.683      1.0        1
     231.632      549.654      1.0        1
     180.087      548.624      1.0        1
     128.511      547.594      1.0        1
      76.903      546.564      1.0        1
      25.263      545.534      1.0        1
     333.593      544.503      1.0        1
     281.892      543.473      1.0        1
     230.159      542.442      1.0        1
     178.396      541.410      1.0        1
     126.602      540.379      1.0        1
      74.778      539.347      1.0        1
      22.923      538.316      1.0        1
     331.037      537.284      1.0        1
     279.122      536.251      1.0        1
     227.176      535.219      1.0        1
     175.201      534.186      1.0        1
     123.195      533.154      1.0        1
      71.160      532.121      1.0        1
      19.095      531.088      1.0        1
     327.000      530.054      1.0        1
     274.876      529.021      1.0        1
     222.723      527.987      1.0        1
     170.540      526.954      1.0        1
     118.329      525.920      1.0        1
      66.088      524.886      1.0        1
      13.819      523.852      1.0        1
     321.520      522.817      1.0        1
     269.193      521.783      1.0        1
     216.838      520.748      1.0        1
     164.454      519.714      1.0        1
     112.042      518.679      1.0        1
      59.602      517.644      1.0        1
       7.134      516.609      1.0        1
     314.637      515.574      1.0        1
     262.113      514.539      1.0        1
     209.561      513.504      1.0        1
     156.982      512.468      1.0        1
     104.375      511.433      1.0        1
      51.740      510.397      1.0        1
     359.079      509.362      1.0        1
     306.390      508.326      1.0        1
     253.674      507.290      1.0        1
     200.931      506.255      1.0        1
     148.161      505.219      1.0        1
      95.364      504.183      1.0        1
      42.541      503.147      1.0        1
     349.692      502.111      1.0        1
     296.815      501.075      1.0        1
     243.913      500.039      1.0        1
     190.984      499.003      1.0        1
     138.030      497.967      1.0        1
      85.049      496.931      1.0        1
      32.042      495.894      1.0        1
     339.010      494.858      1.0        1
     285.952      493.822      1.0        1
     232.868      492.786      1.0        1
     179.759      491.750      1.0        1
     126.625      490.714      1.0        1
      73.465      489.678      1.0        1
      20.281      488.641      1.0        1
     327.071      487.605      1.0        1
     273.836      486.569      1.0        1
     220.577      485.533      1.0        1
     167.293      484.497      1.0        1
     113.984      483.461      1.0        1
      60.651      482.425      1.0        1
       7.293      481.389      1.0        1
     313.911      480.354      1.0        1
     260.505      479.318      1.0        1
     207.075      478.282      1.0        1
     153.620      477.247      1.0        1
     100.142      476.211      1.0        1
      46.641      475.176      1.0        1
     353.115      474.140      1.0        1
     299.566      473.105      1.0        1
     245.994      472.070      1.0        1
     192.398      471.034      1.0        1
     138.779      469.999      1.0        1
      85.136      468.965      1.0        1
      31.471      467.930      1.0        1
     337.783      466.895      1.0        1
     284.072      465.860      1.0        1
     230.338      464.826      1.0        1
     176.581      463.792      1.0        1
     122.802      462.757      1.0        1
      69.001      461.723      1.0        1
      15.177      460.689      1.0        1
     321.331      459.656      1.0        1
     267.463      458.622      1.0        1
     213.572      457.588      1.0        1
     159.660      456.555      1.0        1
     105.726      455.522      1.0        1
      51.770      454.489      1.0        1
     357.793      453.456      1.0        1
     303.794      452.423      1.0        1
     249.773      451.391      1.0        1
     195.731      450.359      1.0        1
     141.668      449.327      1.0        1
      87.584      448.295      1.0        1
      33.478      447.263      1.0        1
     339.352      446.232      1.0        1
     285.205      445.200      1.0        1
     231.037      444.169      1.0        1
     176.848      443.138      1.0        1
     122.639      442.108      1.0        1
      68.409      441.077      1.0        1
      14.159      440.047      1.0        1
     319.889      439.017      1.0        1
     265.598      437.987      1.0        1
     211.287      436.958      1.0        1
     156.956      435.929      1.0        1
     102.606      434.900      1.0        1
      48.235      433.871      1.0        1
     353.845      432.843      1.0        1
     299.435      431.814      1.0        1
     245.006      430.786      1.0        1
     190.557      429.759      1.0        1
     136.088      428.731      1.0        1
      81.601      427.704      1.0        1
      27.094      426.678      1.0        1
     332.568      425.651      1.0        1
     278.023      424.625      1.0        1
     223.460      423.599      1.0        1
     168.877      422.573      1.0        1
     114.276      421.548      1.0        1
      59.656      420.523      1.0        1
       5.017      419.499      1.0        1
     310.360      418.474      1.0        1
     255.685      417.450      1.0        1
     200.992      416.427      1.0        1
     146.280      415.403      1.0        1
      91.550      414.380      1.0        1
      36.802      413.358      1.0        1
     342.036      412.336      1.0        1
     287.253      411.314      1.0        1
     232.452      410.292      1.0        1
     177.633      409.271      1.0        1
     122.796      408.250      1.0        1
      67.942      407.230      1.0        1
      13.071      406.210      1.0        1
     318.182      405.190      1.0        1
     263.276      404.171      1.0        1
     208.353      403.152      1.0        1
     153.413      402.133      1.0        1
      98.456      401.115      1.0        1
      43.482      400.097      1.0        1
     348.491      399.080      1.0        1
     293.483      398.063      1.0        1
     238.459      397.047      1.0        1
     183.419      396.031      1.0        1
     128.362      395.015      1.0        1
      73.288      394.000      1.0        1
      18.198      392.985      1.0        1
     323.092      391.971      1.0        1
     267.970      390.957      1.0        1
     212.832      389.944      1.0        1
     157.678      388.931      1.0        1
     102.508      387.918      1.0        1
      47.323      386.906      1.0        1
     352.121      385.895      1.0        1
     296.904      384.884      1.0        1
     241.672      383.873      1.0        1
     186.424      382.863      1.0        1
     131.160      381.854      1.0        1
      75.882      380.844      1.0        1
      20.588      379.836      1.0        1
     325.279      378.828      1.0        1
     269.955      377.820      1.0        1
     214.616      376.813      1.0        1
     159.262      375.806      1.0        1
     103.893      374.800      1.0        1
      48.509      373.795      1.0        1
     353.111      372.790      1.0        1
     297.698      371.785      1.0        1
     242.271      370.781      1.0        1
     186.829      369.778      1.0        1
     131.373      368.775      1.0        1
      75.903      367.772      1.0        1
      20.418      366.771      1.0        1
     324.920      365.769      1.0        1
     269.407      364.769      1.0        1
     213.881      363.768      1.0        1
     158.340      362.769      1.0        1
     102.786      361.770      1.0        1
      47.218      360.772      1.0        1
     351.636      359.774      1.0        1
     296.041      358.776      1.0        1
     240.432      357.780      1.0        1
     184.810      356.784      1.0        1
     129.174      355.788      1.0        1
      73.525      354.794      1.0        1
      17.863      353.799      1.0        1
     322.188      352.806      1.0        1
     266.499      351.813      1.0        1
     210.798      350.820      1.0        1
     155.084      349.829      1.0        1
      99.357      348.837      1.0        1
      43.617      347.847      1.0        1
     347.864      346.857      1.0        1
     292.099      345.868      1.0        1
     236.322      344.879      1.0        1
     180.531      343.892      1.0        1
     124.729      342.904      1.0        1
      68.914      341.918      1.0        1
      13.087      340.932      1.0        1
     317.247      339.947      1.0        1
     261.395      338.962      1.0        1
     205.532      337.978      1.0        1
     149.656      336.995      1.0        1
      93.769      336.012      1.0        1
      37.869      335.031      1.0        1
     341.958      334.049      1.0        1
     286.035      333.069      1.0        1
     230.101      332.089      1.0        1
     174.154      331.110      1.0        1
     118.197      330.132      1.0        1
      62.228      329.154      1.0        1
       6.247      328.177      1.0        1
     310.256      327.201      1.0        1
     254.253      326.226      1.0        1
     198.238      325.251      1.0        1
     142.213      324.277      1.0        1
      86.177      323.304      1.0        1
      30.129      322.332      1.0        1
     334.071      321.360      1.0        1
     278.002      320.389      1.0        1
     221.922      319.419      1.0        1
     165.832      318.449      1.0        1
     109.730      317.481      1.0        1
      53.619      316.513      1.0        1
     357.496      315.546      1.0        1
     301.363      314.580      1.0        1
     245.220      313.614      1.0        1
     189.067      312.649      1.0        1
     132.903      311.685      1.0        1
      76.729      310.722      1.0        1
      20.545      309.760      1.0        1
     324.351      308.798      1.0        1
     268.147      307.838      1.0        1
     211.932      306.878      1.0        1
     155.708      305.919      1.0        1
      99.474      304.960      1.0        1
      43.231      304.003      1.0        1
     346.977      303.046      1.0        1
     290.714      302.090      1.0        1
     234.442      301.136      1.0        1
     178.160      300.181      1.0        1
     121.868      299.228      1.0        1
      65.567      298.276      1.0        1
       9.257      297.324      1.0        1
     312.937      296.374      1.0        1
     256.608      295.424      1.0        1
     200.270      294.475      1.0        1
     143.923      293.527      1.0        1
      87.567      292.580      1.0        1
      31.201      291.633      1.0        1
     334.827      290.688      1.0        1
     278.444      289.743      1.0        1
     222.052      288.800      1.0        1
     165.652      287.857      1.0        1
     109.242      286.915      1.0        1
      52.824      285.974      1.0        1
     356.398      285.034      1.0        1
     299.963      284.095      1.0        1
     243.519      283.157      1.0        1
     187.067      282.220      1.0        1
     130.607      281.284      1.0        1
      74.138      280.348      1.0        1
      17.661      279.414      1.0        1
     321.176      278.480      1.0        1
     264.683      277.548      1.0        1
     208.181      276.616      1.0        1
     151.672      275.685      1.0        1
      95.154      274.756      1.0        1
      38.629      273.827      1.0        1
     342.096      272.899      1.0        1
     285.555      271.972      1.0        1
     229.006      271.046      1.0        1
     172.449      270.122      1.0        1
     115.885      269.198      1.0        1
      59.313      268.275      1.0        1
       2.733      267.353      1.0        1
     306.146      266.432      1.0        1
     249.552      265.512      1.0        1
     192.950      264.593      1.0        1
     136.341      263.675      1.0        1
      79.724      262.758      1.0        1
      23.101      261.842      1.0        1
     326.470      260.928      1.0        1
     269.831      260.014      1.0        1
     213.186      259.101      1.0        1
     156.534      258.189      1.0        1
      99.875      257.278      1.0        1
      43.208      256.369      1.0        1
     346.535      255.460      1.0        1
     289.855      254.552      1.0        1
     233.168      253.646      1.0        1
     176.474      252.740      1.0        1
     119.774      251.836      1.0        1
      63.067      250.932      1.0        1
       6.353      250.030      1.0        1
     309.633      249.129      1.0        1
     252.906      248.228      1.0        1
     196.173      247.329      1.0        1
     139.433      246.431      1.0        1
      82.687      245.534      1.0        1
      25.935      244.638      1.0        1
     329.176      243.743      1.0        1
     272.411      242.850      1.0        1
     215.640      241.957      1.0        1
     158.862      241.066      1.0        1
     102.079      240.175      1.0        1
      45.289      239.286      1.0        1
     348.494      238.398      1.0        1
     291.692      237.511      1.0        1
     234.885      236.625      1.0        1
     178.071      235.740      1.0        1
     121.252      234.856      1.0        1
      64.427      233.974      1.0        1
       7.596      233.093      1.0        1
     310.760      232.212      1.0        1
     253.918      231.333      1.0        1
     197.070      230.455      1.0        1
     140.216      229.579      1.0        1
      83.357      228.703      1.0        1
      26.493      227.828      1.0        1
     329.623      226.955      1.0        1
     272.748      226.083      1.0        1
     215.867      225.212      1.0        1
     158.981      224.342      1.0        1
     102.089      223.474      1.0        1
      45.193      222.606      1.0        1
     348.291      221.740      1.0        1
     291.384      220.875      1.0        1
     234.472      220.011      1.0        1
     177.554      219.149      1.0        1
     120.632      218.287      1.0        1
      63.705      217.427      1.0        1
       6.772      216.568      1.0        1
     309.835      215.710      1.0        1
     252.893      214.854      1.0        1
     195.946      213.998      1.0        1
     138.994      213.144      1.0        1
      82.037      212.291      1.0        1
      25.076      211.440      1.0        1
     328.110      210.589      1.0        1
     271.139      209.740      1.0        1
     214.164      208.892      1.0        1
     157.184      208.046      1.0        1
     100.199      207.200      1.0        1
      43.210      206.356      1.0        1
     346.217      205.513      1.0        1
     289.219      204.671      1.0        1
     232.216      203.831      1.0        1
     175.209      202.992      1.0        1
     118.198      202.154      1.0        1
      61.183      201.318      1.0        1
       4.163      200.482      1.0        1
     307.139      199.648      1.0        1
     250.111      198.816      1.0        1
     193.078      197.984      1.0        1
     136.042      197.154      1.0        1
      79.001      196.325      1.0        1
      21.957      195.498      1.0        1
     324.908      194.672      1.0        1
     267.855      193.847      1.0        1
     210.799      193.023      1.0        1
     153.738      192.201      1.0        1
      96.674      191.380      1.0        1
      39.605      190.561      1.0        1
     342.533      189.742      1.0        1
     285.457      188.925      1.0        1
     228.377      188.110      1.0        1
     171.294      187.296      1.0        1
     114.207      186.483      1.0        1
      57.116      185.671      1.0        1
       0.022      184.861      1.0        1
     302.924      184.052      1.0        1
     245.822      183.245      1.0        1
     188.717      182.439      1.0        1
     131.608      181.634      1.0        1
      74.496      180.830      1.0        1
      17.380      180.028      1.0        1
     320.261      179.228      1.0        1
     263.139      178.428      1.0        1
     206.013      177.631      1.0        1
     148.884      176.834      1.0        1
      91.752      176.039      1.0        1
      34.616      175.245      1.0        1
     337.477      174.453      1.0        1
     280.335      173.662      1.0        1
     223.189      172.873      1.0        1
     166.041      172.085      1.0        1
     108.889      171.298      1.0        1
      51.735      170.513      1.0        1
     354.577      169.729      1.0        1
     297.416      168.946      1.0        1
     240.252      168.165      1.0        1
     183.085      167.386      1.0        1
     125.916      166.608      1.0        1
      68.743      165.831      1.0        1
      11.567      165.056      1.0        1
     314.389      164.282      1.0        1
     257.207      163.509      1.0        1
     200.023      162.738      1.0        1
     142.836      161.969      1.0        1
      85.647      161.201      1.0        1
      28.454      160.434      1.0        1
     331.259      159.669      1.0        1
     274.061      158.906      1.0        1
     216.860      158.143      1.0        1
     159.657      157.383      1.0        1
     102.451      156.624      1.0        1
      45.243      155.866      1.0        1
     348.032      155.110      1.0        1
     290.818      154.355      1.0        1
     233.602      153.601      1.0        1
     176.384      152.850      1.0        1
     119.163      152.099      1.0        1
      61.939      151.351      1.0        1
       4.713      150.603      1.0        1
     307.485      149.858      1.0        1
     250.254      149.113      1.0        1
     193.021      148.370      1.0        1
     135.786      147.629      1.0        1
      78.548      146.889      1.0        1
      21.309      146.151      1.0        1
     324.066      145.415      1.0        1
     266.822      144.679      1.0        1
     209.575      143.946      1.0        1
     152.326      143.214      1.0        1
      95.075      142.483      1.0        1
      37.822      141.754      1.0        1
     340.567      141.027      1.0        1
     283.310      140.301      1.0        1
     226.050      139.576      1.0        1
     168.789      138.853      1.0        1
     111.525      138.132      1.0        1
      54.259      137.413      1.0        1
     356.992      136.694      1.0        1
     299.722      135.978      1.0        1
     242.451      135.263      1.0        1
     185.177      134.549      1.0        1
     127.902      133.838      1.0        1
      70.625      133.127      1.0        1
      13.345      132.419      1.0        1
     316.064      131.711      1.0        1
     258.782      131.006      1.0        1
     201.497      130.302      1.0        1
     144.210      129.600      1.0        1
      86.922      128.899      1.0        1
      29.632      128.200      1.0        1
     332.340      127.502      1.0        1
     275.047      126.806      1.0        1
     217.752      126.112      1.0        1
     160.455      125.419      1.0        1
     103.156      124.728      1.0        1
      45.856      124.039      1.0        1
     348.554      123.351      1.0        1
     291.251      122.665      1.0        1
     233.946      121.980      1.0        1
     176.639      121.297      1.0        1
     119.331      120.616      1.0        1
      62.021      119.936      1.0        1
       4.710      119.258      1.0        1
     307.397      118.582      1.0        1
     250.083      117.907      1.0        1
     192.767      117.234      1.0        1
     135.450      116.562      1.0        1
      78.132      115.892      1.0        1
      20.812      115.224      1.0        1
     323.490      114.558      1.0        1
     266.167      113.893      1.0        1
     208.843      113.230      1.0        1
     151.517      112.568      1.0        1
      94.190      111.909      1.0        1
      36.862      111.250      1.0        1
     339.533      110.594      1.0        1
     282.202      109.939      1.0        1
     224.870      109.286      1.0        1
     167.536      108.635      1.0        1
     110.201      107.985      1.0        1
      52.866      107.337      1.0        1
     355.528      106.691      1.0        1
     298.190      106.046      1.0        1
     240.850      105.403      1.0        1
     183.510      104.762      1.0        1
     126.168      104.122      1.0        1
      68.825      103.484      1.0        1
      11.481      102.848      1.0        1
     314.135      102.214      1.0        1
     256.789      101.581      1.0        1
     199.441      100.950      1.0        1
     142.093      100.321      1.0        1
      84.743       99.694      1.0        1
      27.392       99.068      1.0        1
     330.040       98.444      1.0        1
     272.688       97.821      1.0        1
     215.334       97.201      1.0        1
     157.979       96.582      1.0        1
     100.623       95.965      1.0        1
      43.266       95.350      1.0        1
     345.908       94.736      1.0        1
     288.550       94.124      1.0        1
     231.190       93.514      1.0        1
     173.829       92.906      1.0        1
     116.468       92.299      1.0        1
      59.105       91.694      1.0        1
       1.742       91.091      1.0        1
     304.378       90.490      1.0        1
     247.013       89.890      1.0        1
     189.647       89.293      1.0        1
     132.280       88.697      1.0        1
      74.912       88.103      1.0        1
      17.544       87.510      1.0        1
     320.174       86.920      1.0        1
     262.804       86.331      1.0        1
     205.433       85.744      1.0        1
     148.061       85.158      1.0        1
      90.689       84.575      1.0        1
      33.316       83.993      1.0        1
     335.942       83.413      1.0        1
     278.567       82.835      1.0        1
     221.192       82.259      1.0        1
     163.815       81.685      1.0        1
     106.438       81.112      1.0        1
      49.061       80.541      1.0        1
     351.683       79.972      1.0        1
     294.304       79.405      1.0        1
     236.924       78.839      1.0        1
     179.544       78.276      1.0        1
     122.163       77.714      1.0        1
      64.781       77.154      1.0        1
       7.399       76.596      1.0        1
     310.016       76.040      1.0        1
     252.632       75.485      1.0        1
     195.248       74.933      1.0        1
     137.863       74.382      1.0        1
      80.478       73.833      1.0        1
      23.092       73.286      1.0        1
     325.706       72.741      1.0        1
     268.319       72.197      1.0        1
     210.931       71.656      1.0        1
     153.543       71.116      1.0        1
      96.154       70.578      1.0        1
      38.765       70.042      1.0        1
     341.375       69.508      1.0        1
     283.985       68.976      1.0        1
     226.594       68.445      1.0        1
     169.203       67.917      1.0        1
     111.811       67.390      1.0        1
      54.419       66.865      1.0        1
     357.026       66.342      1.0        1
     299.633       65.821      1.0        1
     242.239       65.302      1.0        1
     184.845       64.785      1.0        1
     127.450       64.269      1.0        1
      70.055       63.756      1.0        1
      12.660       63.244      1.0        1
     315.264       62.734      1.0        1
     257.867       62.227      1.0        1
     200.471       61.721      1.0        1
     143.073       61.217      1.0        1
      85.676       60.714      1.0        1
      28.278       60.214      1.0        1
     330.879       59.716      1.0        1
     273.481       59.219      1.0        1
     216.082       58.725      1.0        1
     158.682       58.232      1.0        1
     101.282       57.741      1.0        1
      43.882       57.252      1.0        1
     346.481       56.766      1.0        1
     289.080       56.281      1.0        1
     231.679       55.797      1.0        1
     174.277       55.316      1.0        1
     116.876       54.837      1.0        1
      59.473       54.360      1.0        1
       2.071       53.884      1.0        1
     304.668       53.411      1.0        1
     247.265       52.939      1.0        1
     189.861       52.470      1.0        1
     132.457       52.002      1.0        1
      75.053       51.536      1.0        1
      17.649       51.073      1.0        1
     320.244       50.611      1.0        1
     262.839       50.151      1.0        1
     205.434       49.693      1.0        1
     148.028       49.237      1.0        1
      90.623       48.783      1.0        1
      33.217       48.331      1.0        1
     335.810       47.881      1.0        1
     278.404       47.433      1.0        1
     220.997       46.986      1.0        1
     163.590       46.542      1.0        1
     106.183       46.100      1.0        1
      48.775       45.660      1.0        1
     351.368       45.221      1.0        1
     293.960       44.785      1.0        1
     236.551       44.350      1.0        1
     179.143       43.918      1.0        1
     121.734       43.487      1.0        1
      64.326       43.059      1.0        1
       6.917       42.632      1.0        1
     309.508       42.208      1.0        1
     252.098       41.785      1.0        1
     194.689       41.365      1.0        1
     137.279       40.946      1.0        1
      79.869       40.530      1.0        1
      22.459       40.115      1.0        1
     325.048       39.702      1.0        1
     267.638       39.292      1.0        1
     210.227       38.883      1.0        1
     152.817       38.476      1.0        1
      95.406       38.072      1.0        1
      37.995       37.669      1.0        1
     340.583       37.268      1.0        1
     283.172       36.870      1.0        1
     225.760       36.473      1.0        1
     168.348       36.078      1.0        1
     110.937       35.686      1.0        1
      53.525       35.295      1.0        1
     356.112       34.907      1.0        1
     298.700       34.520      1.0        1
     241.288       34.135      1.0        1
     183.875       33.753      1.0        1
     126.463       33.372      1.0        1
      69.050       32.994      1.0        1
      11.637       32.617      1.0        1
     314.224       32.243      1.0        1
     256.811       31.870      1.0        1
     199.397       31.500      1.0        1
     141.984       31.132      1.0        1
      84.570       30.765      1.0        1
      27.157       30.401      1.0        1
     329.743       30.038      1.0        1
     272.329       29.678      1.0        1
     214.916       29.320      1.0        1
     157.502       28.964      1.0        1
     100.087       28.610      1.0        1
      42.673       28.257      1.0        1
     345.259       27.907      1.0        1
     287.845       27.559      1.0        1
     230.430       27.213      1.0        1
     173.016       26.869      1.0        1
     115.601       26.528      1.0        1
      58.186       26.188      1.0        1
       0.772       25.850      1.0        1
     303.357       25.514      1.0        1
     245.942       25.181      1.0        1
     188.527       24.849      1.0        1
     131.112       24.519      1.0        1
      73.697       24.192      1.0        1
      16.282       23.866      1.0        1
     318.866       23.543      1.0        1
     261.451       23.222      1.0        1
     204.036       22.902      1.0        1
     146.620       22.585      1.0        1
      89.205       22.270      1.0        1
      31.789       21.957      1.0        1
     334.374       21.646      1.0        1
     276.958       21.337      1.0        1
     219.542       21.030      1.0        1
     162.127       20.725      1.0        1
     104.711       20.423      1.0        1
      47.295       20.122      1.0        1
     349.879       19.824      1.0        1
     292.463       19.527      1.0        1
     235.047       19.233      1.0        1
     177.631       18.941      1.0        1
     120.215       18.650      1.0        1
      62.799       18.362      1.0        1
       5.383       18.076      1.0        1
     307.967       17.792      1.0        1
     250.550       17.510      1.0        1
     193.134       17.231      1.0        1
     135.718       16.953      1.0        1
      78.302       16.677      1.0        1
      20.885       16.404      1.0        1
     323.469       16.132      1.0        1
     266.052       15.863      1.0        1
     208.636       15.596      1.0        1
     151.220       15.331      1.0        1
      93.803       15.068      1.0        1
      36.386       14.807      1.0        1
     338.970       14.548      1.0        1
     281.553       14.291      1.0        1
     224.137       14.037      1.0        1
     166.720       13.784      1.0        1
     109.303       13.534      1.0        1
      51.887       13.285      1.0        1
     354.470       13.039      1.0        1
     297.053       12.795      1.0        1
     239.637       12.553      1.0        1
     182.220       12.313      1.0        1
     124.803       12.076      1.0        1
      67.386       11.840      1.0        1
       9.969       11.606      1.0        1
     312.553       11.375      1.0        1
     255.136       11.146      1.0        1
     197.719       10.919      1.0        1
     140.302       10.694      1.0        1
      82.885       10.471      1.0        1
      25.468       10.250      1.0        1
     328.051       10.031      1.0        1
     270.634        9.815      1.0        1
     213.217        9.600      1.0        1
     155.801        9.388      1.0        1
      98.384        9.178      1.0        1
      40.967        8.970      1.0        1
     343.550        8.764      1.0        1
     286.133        8.560      1.0        1
     228.716        8.358      1.0        1
     171.299        8.159      1.0        1
     113.882        7.961      1.0        1
      56.465        7.766      1.0        1
     359.047        7.573      1.0        1
     301.630        7.382      1.0        1
     244.213        7.193      1.0        1
     186.796        7.006      1.0        1
     129.379        6.821      1.0        1
      71.962        6.639      1.0        1
      14.545        6.459      1.0        1
     317.128        6.280      1.0        1
     259.711        6.104      1.0        1
     202.294        5.930      1.0        1
     144.877        5.759      1.0        1
      87.460        5.589      1.0        1
      30.043        5.422      1.0        1
     332.625        5.256      1.0        1
     275.208        5.093      1.0        1
     217.791        4.932      1.0        1
     160.374        4.773      1.0        1
     102.957        4.616      1.0        1
      45.540        4.462      1.0        1
     348.123        4.309      1.0        1
     290.706        4.159      1.0        1
     233.288        4.011      1.0        1
     175.871        3.864      1.0        1
     118.454        3.721      1.0        1
      61.037        3.579      1.0        1
       3.620        3.439      1.0        1
     306.203        3.302      1.0        1
     248.785        3.166      1.0        1
     191.368        3.033      1.0        1
     133.951        2.902      1.0        1
      76.534        2.774      1.0        1
      19.117        2.647      1.0        1
     321.700        2.522      1.0        1
     264.282        2.400      1.0        1
     206.865        2.280      1.0        1
     149.448        2.162      1.0        1
      92.031        2.046      1.0        1
      34.614        1.932      1.0        1
     337.197        1.820      1.0        1
     279.779        1.711      1.0        1
     222.362        1.604      1.0        1
     164.945        1.499      1.0        1
     107.528        1.396      1.0        1
      50.111        1.295      1.0        1
     352.694        1.196      1.0        1
     295.276        1.100      1.0        1
     237.859        1.006      1.0        1
     180.442        0.913      1.0        1
     123.025        0.823      1.0        1
      65.608        0.736      1.0        1
       8.191        0.650      1.0        1
     310.773        0.567      1.0        1
     253.356        0.485      1.0        1
     195.939        0.406      1.0        1
     138.522        0.329      1.0        1
      81.105        0.254      1.0        1
      23.687        0.182      1.0        1
     326.270        0.111      1.0        1
     268.853        0.043      1.0        1
     211.436        0.000      1.0        1
     154.019        0.000      1.0        1
      96.602        0.000      1.0        1
      39.184        0.000      1.0        1
     341.767        0.000      1.0        1
     284.350        0.000      1.0        1
     226.933        0.000      1.0        1
     169.516        0.000      1.0        1
     112.099        0.000      1.0        1
      54.681        0.000      1.0        0
     357.264        0.000      1.0        0
     299.847        0.000      1.0        0
     242.430        0.000      1.0        0
     185.013        0.000      1.0        0
     127.595        0.000      1.0        0
      70.178        0.000      1.0        0
      12.761        0.000      1.0        0
     315.344        0.000      1.0        0
     257.927        0.000      1.0        0
     200.510        0.000      1.0        0
     143.092        0.000      1.0        0
      85.675        0.000      1.0        0
      28.258        0.000      1.0        0
     330.841        0.000      1.0        0
     273.424        0.000      1.0        0
     216.006        0.000      1.0        0
     158.589        0.000      1.0        0
     101.172        0.000      1.0        0
      43.755        0.000      1.0        0
     346.338        0.000      1.0        0
       0.000        0.000      1.0        0
